Filename	3-methyl-2-nitrophenol
Instrument name	DSC2A-00807 (172.23.165.2)
Operator	Petroc Shelley
rundate	5/3/2019
Sample name	3-methyl-2-nitrophenol
proceduresegments	Ramp 10 °C/min to 60.00 °C
[step]
Ramp 10 °C/min to 60.00 °C
Time	Temperature	Heat Flow (Normalized)
min	°C	W/g
0.00000		
1.66667e-3		
3.33333e-3		
5.00000e-3		
6.66667e-3		
8.33333e-3	30.330	
0.0100000	30.334	
0.0116667	30.337	
0.0133333	30.340	
0.0150000	30.342	
0.0166667	30.344	
0.0183333	30.347	
0.0200000	30.349	
0.0216667	30.352	
0.0233333	30.355	
0.0250000	30.357	
0.0266667	30.361	
0.0283333	30.364	
0.0300000	30.366	
0.0316667	30.370	
0.0333333	30.373	
0.0350000	30.376	
0.0366667	30.379	
0.0383333	30.382	
0.0400000	30.386	
0.0416667	30.389	
0.0433333	30.392	
0.0450000	30.395	
0.0466667	30.398	
0.0483333	30.402	
0.0500000	30.405	
0.0516667	30.409	
0.0533333	30.413	
0.0550000	30.416	
0.0566667	30.420	
0.0583333	30.424	-0.226163
0.0600000	30.428	-0.226155
0.0616667	30.433	-0.226140
0.0633333	30.438	-0.226072
0.0650000	30.441	-0.225928
0.0666667	30.447	-0.225678
0.0683333	30.452	-0.225349
0.0700000	30.457	-0.224869
0.0716667	30.460	-0.224424
0.0733333	30.466	-0.224019
0.0750000	30.471	-0.223686
0.0766667	30.477	-0.223520
0.0783333	30.483	-0.223451
0.0800000	30.489	-0.223435
0.0816667	30.497	-0.223432
0.0833333	30.502	-0.223434
0.0850000	30.509	-0.223441
0.0866667	30.515	-0.223453
0.0883333	30.522	-0.223476
0.0900000	30.529	-0.223551
0.0916667	30.537	-0.223719
0.0933333	30.543	-0.224011
0.0950000	30.552	-0.224607
0.0966667	30.561	-0.225579
0.0983333	30.568	-0.227028
0.100000	30.577	-0.229144
0.101667	30.585	-0.231536
0.103333	30.593	-0.234104
0.105000	30.602	-0.236082
0.106667	30.610	-0.238079
0.108333	30.619	-0.240152
0.110000	30.629	-0.242395
0.111667	30.638	-0.244388
0.113333	30.647	-0.245985
0.115000	30.657	-0.247466
0.116667	30.667	-0.248863
0.118333	30.678	-0.250951
0.120000	30.687	-0.252424
0.121667	30.698	-0.254346
0.123333	30.707	-0.255578
0.125000	30.718	-0.256945
0.126667	30.728	-0.258231
0.128333	30.738	-0.259729
0.130000	30.750	-0.261037
0.131667	30.760	-0.262352
0.133333	30.771	-0.263556
0.135000	30.782	-0.264794
0.136667	30.793	-0.265948
0.138333	30.805	-0.266751
0.140000	30.816	-0.267573
0.141667	30.827	-0.268552
0.143333	30.839	-0.269407
0.145000	30.849	-0.269901
0.146667	30.861	-0.270832
0.148333	30.873	-0.271649
0.150000	30.887	-0.272376
0.151667	30.898	-0.273275
0.153333	30.910	-0.274095
0.155000	30.923	-0.274700
0.156667	30.935	-0.275294
0.158333	30.947	-0.275599
0.160000	30.959	-0.276078
0.161667	30.971	-0.276875
0.163333	30.984	-0.277130
0.165000	30.996	-0.277779
0.166667	31.007	-0.278021
0.168333	31.020	-0.278338
0.170000	31.032	-0.278385
0.171667	31.045	-0.278497
0.173333	31.058	-0.278635
0.175000	31.070	-0.278551
0.176667	31.083	-0.278559
0.178333	31.095	-0.278478
0.180000	31.108	-0.278542
0.181667	31.121	-0.278709
0.183333	31.134	-0.278800
0.185000	31.147	-0.278724
0.186667	31.160	-0.278843
0.188333	31.172	-0.279084
0.190000	31.186	-0.279272
0.191667	31.199	-0.279538
0.193333	31.211	-0.279697
0.195000	31.224	-0.279773
0.196667	31.237	-0.279756
0.198333	31.250	-0.279713
0.200000	31.263	-0.279666
0.201667	31.276	-0.279617
0.203333	31.288	-0.279565
0.205000	31.302	-0.279527
0.206667	31.315	-0.279528
0.208333	31.329	-0.279610
0.210000	31.342	-0.279696
0.211667	31.356	-0.279811
0.213333	31.369	-0.279934
0.215000	31.383	-0.279995
0.216667	31.395	-0.280046
0.218333	31.409	-0.280091
0.220000	31.423	-0.280140
0.221667	31.436	-0.280158
0.223333	31.449	-0.280210
0.225000	31.463	-0.280263
0.226667	31.477	-0.280331
0.228333	31.490	-0.280434
0.230000	31.503	-0.280557
0.231667	31.517	-0.280682
0.233333	31.530	-0.280783
0.235000	31.544	-0.280882
0.236667	31.559	-0.280955
0.238333	31.571	-0.281054
0.240000	31.585	-0.281201
0.241667	31.599	-0.281373
0.243333	31.613	-0.281631
0.245000	31.628	-0.281923
0.246667	31.642	-0.282377
0.248333	31.655	-0.282778
0.250000	31.669	-0.283111
0.251667	31.684	-0.283355
0.253333	31.698	-0.283542
0.255000	31.712	-0.283616
0.256667	31.726	-0.283638
0.258333	31.741	-0.283650
0.260000	31.754	-0.283667
0.261667	31.768	-0.283692
0.263333	31.783	-0.283747
0.265000	31.797	-0.283837
0.266667	31.811	-0.283948
0.268333	31.826	-0.284120
0.270000	31.840	-0.284404
0.271667	31.855	-0.284775
0.273333	31.869	-0.285152
0.275000	31.883	-0.285442
0.276667	31.898	-0.285676
0.278333	31.913	-0.285883
0.280000	31.927	-0.286070
0.281667	31.942	-0.286252
0.283333	31.956	-0.286419
0.285000	31.970	-0.286543
0.286667	31.985	-0.286651
0.288333	31.999	-0.286780
0.290000	32.013	-0.286880
0.291667	32.027	-0.287031
0.293333	32.042	-0.287221
0.295000	32.057	-0.287472
0.296667	32.072	-0.287726
0.298333	32.088	-0.288013
0.300000	32.102	-0.288411
0.301667	32.117	-0.288767
0.303333	32.132	-0.289088
0.305000	32.147	-0.289329
0.306667	32.162	-0.289524
0.308333	32.178	-0.289697
0.310000	32.192	-0.289839
0.311667	32.206	-0.289925
0.313333	32.221	-0.289992
0.315000	32.236	-0.290059
0.316667	32.250	-0.290130
0.318333	32.265	-0.290240
0.320000	32.280	-0.290371
0.321667	32.296	-0.290459
0.323333	32.310	-0.290547
0.325000	32.326	-0.290596
0.326667	32.341	-0.290644
0.328333	32.356	-0.290689
0.330000	32.372	-0.290736
0.331667	32.386	-0.290796
0.333333	32.402	-0.290836
0.335000	32.416	-0.290869
0.336667	32.431	-0.290921
0.338333	32.447	-0.290991
0.340000	32.462	-0.291078
0.341667	32.477	-0.291183
0.343333	32.493	-0.291267
0.345000	32.508	-0.291309
0.346667	32.523	-0.291353
0.348333	32.538	-0.291425
0.350000	32.553	-0.291484
0.351667	32.568	-0.291543
0.353333	32.584	-0.291583
0.355000	32.599	-0.291607
0.356667	32.615	-0.291643
0.358333	32.631	-0.291687
0.360000	32.645	-0.291740
0.361667	32.661	-0.291808
0.363333	32.676	-0.291873
0.365000	32.692	-0.291928
0.366667	32.707	-0.291994
0.368333	32.723	-0.292044
0.370000	32.738	-0.292075
0.371667	32.754	-0.292102
0.373333	32.769	-0.292131
0.375000	32.784	-0.292167
0.376667	32.799	-0.292212
0.378333	32.815	-0.292263
0.380000	32.829	-0.292315
0.381667	32.845	-0.292363
0.383333	32.861	-0.292398
0.385000	32.877	-0.292441
0.386667	32.892	-0.292477
0.388333	32.907	-0.292497
0.390000	32.923	-0.292515
0.391667	32.939	-0.292534
0.393333	32.954	-0.292563
0.395000	32.970	-0.292622
0.396667	32.986	-0.292687
0.398333	33.000	-0.292789
0.400000	33.016	-0.292904
0.401667	33.031	-0.292985
0.403333	33.049	-0.293034
0.405000	33.064	-0.293061
0.406667	33.079	-0.293082
0.408333	33.094	-0.293168
0.410000	33.110	-0.293204
0.411667	33.126	-0.293260
0.413333	33.142	-0.293279
0.415000	33.158	-0.293322
0.416667	33.173	-0.293341
0.418333	33.189	-0.293363
0.420000	33.204	-0.293386
0.421667	33.221	-0.293409
0.423333	33.237	-0.293446
0.425000	33.253	-0.293469
0.426667	33.268	-0.293493
0.428333	33.284	-0.293514
0.430000	33.300	-0.293537
0.431667	33.314	-0.293558
0.433333	33.331	-0.293580
0.435000	33.347	-0.293608
0.436667	33.362	-0.293645
0.438333	33.379	-0.293695
0.440000	33.394	-0.293766
0.441667	33.410	-0.293876
0.443333	33.425	-0.293989
0.445000	33.440	-0.294084
0.446667	33.458	-0.294112
0.448333	33.473	-0.294168
0.450000	33.489	-0.294184
0.451667	33.505	-0.294198
0.453333	33.521	-0.294211
0.455000	33.538	-0.294225
0.456667	33.553	-0.294240
0.458333	33.569	-0.294257
0.460000	33.585	-0.294277
0.461667	33.600	-0.294302
0.463333	33.616	-0.294378
0.465000	33.632	-0.294419
0.466667	33.648	-0.294460
0.468333	33.663	-0.294491
0.470000	33.680	-0.294523
0.471667	33.696	-0.294549
0.473333	33.711	-0.294572
0.475000	33.728	-0.294595
0.476667	33.744	-0.294618
0.478333	33.760	-0.294642
0.480000	33.776	-0.294661
0.481667	33.791	-0.294680
0.483333	33.807	-0.294694
0.485000	33.823	-0.294707
0.486667	33.840	-0.294719
0.488333	33.856	-0.294731
0.490000	33.871	-0.294744
0.491667	33.888	-0.294755
0.493333	33.905	-0.294766
0.495000	33.920	-0.294780
0.496667	33.936	-0.294794
0.498333	33.953	-0.294808
0.500000	33.969	-0.294822
0.501667	33.985	-0.294835
0.503333	34.001	-0.294851
0.505000	34.017	-0.294868
0.506667	34.032	-0.294888
0.508333	34.048	-0.294909
0.510000	34.064	-0.294932
0.511667	34.081	-0.294977
0.513333	34.096	-0.295023
0.515000	34.113	-0.295070
0.516667	34.130	-0.295111
0.518333	34.145	-0.295156
0.520000	34.161	-0.295187
0.521667	34.178	-0.295220
0.523333	34.193	-0.295248
0.525000	34.209	-0.295296
0.526667	34.225	-0.295322
0.528333	34.240	-0.295347
0.530000	34.258	-0.295374
0.531667	34.274	-0.295398
0.533333	34.290	-0.295420
0.535000	34.306	-0.295443
0.536667	34.321	-0.295466
0.538333	34.338	-0.295488
0.540000	34.354	-0.295507
0.541667	34.370	-0.295527
0.543333	34.386	-0.295548
0.545000	34.403	-0.295571
0.546667	34.419	-0.295597
0.548333	34.435	-0.295626
0.550000	34.451	-0.295658
0.551667	34.468	-0.295713
0.553333	34.484	-0.295771
0.555000	34.500	-0.295844
0.556667	34.516	-0.295908
0.558333	34.533	-0.295935
0.560000	34.549	-0.295961
0.561667	34.565	-0.295984
0.563333	34.582	-0.296009
0.565000	34.598	-0.296034
0.566667	34.613	-0.296058
0.568333	34.632	-0.296085
0.570000	34.647	-0.296112
0.571667	34.663	-0.296137
0.573333	34.679	-0.296164
0.575000	34.694	-0.296188
0.576667	34.712	-0.296212
0.578333	34.728	-0.296236
0.580000	34.743	-0.296262
0.581667	34.760	-0.296289
0.583333	34.777	-0.296319
0.585000	34.793	-0.296358
0.586667	34.810	-0.296419
0.588333	34.825	-0.296449
0.590000	34.842	-0.296479
0.591667	34.857	-0.296508
0.593333	34.874	-0.296532
0.595000	34.891	-0.296557
0.596667	34.908	-0.296578
0.598333	34.923	-0.296594
0.600000	34.939	-0.296608
0.601667	34.956	-0.296626
0.603333	34.972	-0.296649
0.605000	34.989	-0.296669
0.606667	35.006	-0.296691
0.608333	35.022	-0.296717
0.610000	35.037	-0.296751
0.611667	35.054	-0.296781
0.613333	35.070	-0.296812
0.615000	35.086	-0.296840
0.616667	35.102	-0.296863
0.618333	35.119	-0.296885
0.620000	35.136	-0.296903
0.621667	35.152	-0.296919
0.623333	35.168	-0.296931
0.625000	35.184	-0.296943
0.626667	35.201	-0.296952
0.628333	35.215	-0.296966
0.630000	35.233	-0.296983
0.631667	35.249	-0.297000
0.633333	35.265	-0.297019
0.635000	35.281	-0.297040
0.636667	35.299	-0.297062
0.638333	35.315	-0.297085
0.640000	35.330	-0.297108
0.641667	35.347	-0.297130
0.643333	35.363	-0.297154
0.645000	35.380	-0.297174
0.646667	35.396	-0.297196
0.648333	35.414	-0.297219
0.650000	35.429	-0.297240
0.651667	35.446	-0.297261
0.653333	35.463	-0.297279
0.655000	35.479	-0.297297
0.656667	35.495	-0.297319
0.658333	35.511	-0.297344
0.660000	35.528	-0.297369
0.661667	35.544	-0.297392
0.663333	35.560	-0.297415
0.665000	35.578	-0.297440
0.666667	35.593	-0.297468
0.668333	35.610	-0.297496
0.670000	35.626	-0.297522
0.671667	35.642	-0.297548
0.673333	35.660	-0.297576
0.675000	35.675	-0.297603
0.676667	35.691	-0.297631
0.678333	35.707	-0.297659
0.680000	35.724	-0.297689
0.681667	35.741	-0.297716
0.683333	35.757	-0.297745
0.685000	35.774	-0.297773
0.686667	35.789	-0.297801
0.688333	35.806	-0.297826
0.690000	35.822	-0.297852
0.691667	35.839	-0.297882
0.693333	35.856	-0.297917
0.695000	35.872	-0.297970
0.696667	35.887	-0.298065
0.698333	35.904	-0.298192
0.700000	35.921	-0.298276
0.701667	35.938	-0.298347
0.703333	35.954	-0.298426
0.705000	35.970	-0.298511
0.706667	35.987	-0.298600
0.708333	36.004	-0.298662
0.710000	36.020	-0.298725
0.711667	36.036	-0.298766
0.713333	36.053	-0.298835
0.715000	36.069	-0.298945
0.716667	36.086	-0.299095
0.718333	36.102	-0.299179
0.720000	36.118	-0.299236
0.721667	36.134	-0.299289
0.723333	36.152	-0.299343
0.725000	36.166	-0.299425
0.726667	36.184	-0.299475
0.728333	36.200	-0.299538
0.730000	36.217	-0.299581
0.731667	36.232	-0.299636
0.733333	36.248	-0.299672
0.735000	36.266	-0.299738
0.736667	36.282	-0.299804
0.738333	36.298	-0.299885
0.740000	36.315	-0.300007
0.741667	36.331	-0.300092
0.743333	36.347	-0.300205
0.745000	36.363	-0.300275
0.746667	36.380	-0.300359
0.748333	36.396	-0.300475
0.750000	36.414	-0.300634
0.751667	36.430	-0.300839
0.753333	36.446	-0.301063
0.755000	36.463	-0.301253
0.756667	36.480	-0.301422
0.758333	36.497	-0.301589
0.760000	36.513	-0.301700
0.761667	36.529	-0.301772
0.763333	36.546	-0.301805
0.765000	36.562	-0.301836
0.766667	36.578	-0.301865
0.768333	36.595	-0.301919
0.770000	36.611	-0.301959
0.771667	36.627	-0.302020
0.773333	36.645	-0.302103
0.775000	36.662	-0.302230
0.776667	36.677	-0.302435
0.778333	36.694	-0.302724
0.780000	36.710	-0.303076
0.781667	36.727	-0.303410
0.783333	36.744	-0.303695
0.785000	36.760	-0.304079
0.786667	36.776	-0.304467
0.788333	36.792	-0.304793
0.790000	36.809	-0.305067
0.791667	36.826	-0.305326
0.793333	36.842	-0.305577
0.795000	36.859	-0.305865
0.796667	36.875	-0.306092
0.798333	36.892	-0.306232
0.800000	36.909	-0.306376
0.801667	36.925	-0.306597
0.803333	36.940	-0.306852
0.805000	36.957	-0.307076
0.806667	36.974	-0.307280
0.808333	36.991	-0.307424
0.810000	37.007	-0.307645
0.811667	37.024	-0.307936
0.813333	37.040	-0.308444
0.815000	37.056	-0.308949
0.816667	37.072	-0.309429
0.818333	37.090	-0.309809
0.820000	37.106	-0.310325
0.821667	37.122	-0.310839
0.823333	37.139	-0.311363
0.825000	37.155	-0.311794
0.826667	37.172	-0.312261
0.828333	37.189	-0.312809
0.830000	37.204	-0.313309
0.831667	37.222	-0.313883
0.833333	37.238	-0.314428
0.835000	37.255	-0.315051
0.836667	37.271	-0.315735
0.838333	37.288	-0.316479
0.840000	37.305	-0.317221
0.841667	37.320	-0.318132
0.843333	37.338	-0.319128
0.845000	37.353	-0.320325
0.846667	37.369	-0.321413
0.848333	37.385	-0.322260
0.850000	37.403	-0.322833
0.851667	37.419	-0.323260
0.853333	37.437	-0.323572
0.855000	37.452	-0.323853
0.856667	37.469	-0.324050
0.858333	37.485	-0.324273
0.860000	37.501	-0.324441
0.861667	37.517	-0.324731
0.863333	37.535	-0.325192
0.865000	37.550	-0.325649
0.866667	37.567	-0.326140
0.868333	37.585	-0.326612
0.870000	37.601	-0.327172
0.871667	37.617	-0.327628
0.873333	37.633	-0.327937
0.875000	37.650	-0.328173
0.876667	37.666	-0.328425
0.878333	37.683	-0.328670
0.880000	37.701	-0.329132
0.881667	37.716	-0.329855
0.883333	37.732	-0.330698
0.885000	37.748	-0.331397
0.886667	37.765	-0.332187
0.888333	37.782	-0.332817
0.890000	37.798	-0.333288
0.891667	37.815	-0.333611
0.893333	37.831	-0.333968
0.895000	37.849	-0.334356
0.896667	37.864	-0.334982
0.898333	37.881	-0.335990
0.900000	37.897	-0.337700
0.901667	37.913	-0.339465
0.903333	37.929	-0.341406
0.905000	37.947	-0.343453
0.906667	37.962	-0.344292
0.908333	37.979	-0.344495
0.910000	37.996	-0.344490
0.911667	38.013	-0.344681
0.913333	38.030	-0.344816
0.915000	38.046	-0.344932
0.916667	38.061	-0.345346
0.918333	38.079	-0.345950
0.920000	38.096	-0.346709
0.921667	38.112	-0.347921
0.923333	38.128	-0.349694
0.925000	38.145	-0.350900
0.926667	38.161	-0.351350
0.928333	38.178	-0.352092
0.930000	38.194	-0.352863
0.931667	38.211	-0.353434
0.933333	38.227	-0.354775
0.935000	38.243	-0.356057
0.936667	38.259	-0.357620
0.938333	38.276	-0.359199
0.940000	38.291	-0.360622
0.941667	38.309	-0.362640
0.943333	38.324	-0.364160
0.945000	38.341	-0.365447
0.946667	38.357	-0.366348
0.948333	38.374	-0.367597
0.950000	38.391	-0.368647
0.951667	38.406	-0.369970
0.953333	38.423	-0.371071
0.955000	38.439	-0.372386
0.956667	38.456	-0.373058
0.958333	38.472	-0.374453
0.960000	38.489	-0.376113
0.961667	38.505	-0.377481
0.963333	38.521	-0.379346
0.965000	38.537	-0.380507
0.966667	38.554	-0.382720
0.968333	38.570	-0.384478
0.970000	38.585	-0.386401
0.971667	38.602	-0.389034
0.973333	38.618	-0.390927
0.975000	38.634	-0.392436
0.976667	38.651	-0.394362
0.978333	38.668	-0.396689
0.980000	38.683	-0.399107
0.981667	38.700	-0.401430
0.983333	38.716	-0.403966
0.985000	38.734	-0.406403
0.986667	38.748	-0.408670
0.988333	38.764	-0.411290
0.990000	38.781	-0.414377
0.991667	38.797	-0.417783
0.993333	38.814	-0.421343
0.995000	38.828	-0.425093
0.996667	38.845	-0.429318
0.998333	38.861	-0.434164
1.00000	38.877	-0.438453
1.00167	38.893	-0.442859
1.00333	38.908	-0.447848
1.00500	38.924	-0.452497
1.00667	38.942	-0.457823
1.00833	38.956	-0.463535
1.01000	38.972	-0.469343
1.01167	38.987	-0.476316
1.01333	39.003	-0.483479
1.01500	39.019	-0.491378
1.01667	39.035	-0.499724
1.01833	39.050	-0.507748
1.02000	39.066	-0.515622
1.02167	39.081	-0.523451
1.02333	39.097	-0.532041
1.02500	39.111	-0.540996
1.02667	39.126	-0.550711
1.02833	39.142	-0.560452
1.03000	39.157	-0.571253
1.03167	39.172	-0.583199
1.03333	39.186	-0.596933
1.03500	39.201	-0.612343
1.03667	39.216	-0.630160
1.03833	39.231	-0.650609
1.04000	39.245	-0.674656
1.04167	39.258	-0.702711
1.04333	39.273	-0.734726
1.04500	39.287	-0.770644
1.04667	39.299	-0.809950
1.04833	39.312	-0.851734
1.05000	39.323	-0.895625
1.05167	39.336	-0.940095
1.05333	39.347	-0.985421
1.05500	39.358	-1.02925
1.05667	39.368	-1.07161
1.05833	39.379	-1.11220
1.06000	39.389	-1.15237
1.06167	39.400	-1.19195
1.06333	39.409	-1.23036
1.06500	39.418	-1.26822
1.06667	39.428	-1.30602
1.06833	39.437	-1.34322
1.07000	39.445	-1.38045
1.07167	39.454	-1.41756
1.07333	39.463	-1.45395
1.07500	39.471	-1.49007
1.07667	39.479	-1.52680
1.07833	39.488	-1.56382
1.08000	39.496	-1.59974
1.08167	39.505	-1.63472
1.08333	39.512	-1.66832
1.08500	39.519	-1.70035
1.08667	39.527	-1.73053
1.08833	39.533	-1.75938
1.09000	39.541	-1.78655
1.09167	39.549	-1.81286
1.09333	39.557	-1.83864
1.09500	39.563	-1.86543
1.09667	39.571	-1.89249
1.09833	39.578	-1.91965
1.10000	39.586	-1.94797
1.10167	39.593	-1.97530
1.10333	39.600	-2.00159
1.10500	39.608	-2.02628
1.10667	39.614	-2.04961
1.10833	39.622	-2.07283
1.11000	39.629	-2.09684
1.11167	39.635	-2.12145
1.11333	39.643	-2.14806
1.11500	39.649	-2.17622
1.11667	39.657	-2.20570
1.11833	39.666	-2.23659
1.12000	39.670	-2.26759
1.12167	39.678	-2.29892
1.12333	39.685	-2.32855
1.12500	39.691	-2.35554
1.12667	39.696	-2.38059
1.12833	39.705	-2.40359
1.13000	39.711	-2.42459
1.13167	39.718	-2.44409
1.13333	39.725	-2.46261
1.13500	39.731	-2.48041
1.13667	39.738	-2.49750
1.13833	39.746	-2.51412
1.14000	39.753	-2.53170
1.14167	39.760	-2.55058
1.14333	39.768	-2.57140
1.14500	39.775	-2.59322
1.14667	39.783	-2.61669
1.14833	39.790	-2.64111
1.15000	39.797	-2.66510
1.15167	39.804	-2.68855
1.15333	39.811	-2.71116
1.15500	39.819	-2.73246
1.15667	39.827	-2.75256
1.15833	39.833	-2.77209
1.16000	39.841	-2.79206
1.16167	39.849	-2.81179
1.16333	39.856	-2.83171
1.16500	39.863	-2.85213
1.16667	39.870	-2.87347
1.16833	39.878	-2.89460
1.17000	39.885	-2.91575
1.17167	39.893	-2.93601
1.17333	39.902	-2.95612
1.17500	39.909	-2.97467
1.17667	39.917	-2.99169
1.17833	39.925	-3.00786
1.18000	39.933	-3.02338
1.18167	39.940	-3.03881
1.18333	39.949	-3.05403
1.18500	39.957	-3.06977
1.18667	39.966	-3.08700
1.18833	39.974	-3.10612
1.19000	39.983	-3.12728
1.19167	39.989	-3.15033
1.19333	39.998	-3.17410
1.19500	40.006	-3.19753
1.19667	40.013	-3.21895
1.19833	40.022	-3.23892
1.20000	40.029	-3.25695
1.20167	40.037	-3.27169
1.20333	40.045	-3.28409
1.20500	40.054	-3.29367
1.20667	40.062	-3.30092
1.20833	40.072	-3.30667
1.21000	40.080	-3.31189
1.21167	40.089	-3.31669
1.21333	40.099	-3.32224
1.21500	40.108	-3.32819
1.21667	40.117	-3.33476
1.21833	40.128	-3.34264
1.22000	40.137	-3.35243
1.22167	40.147	-3.36478
1.22333	40.157	-3.37950
1.22500	40.166	-3.39766
1.22667	40.176	-3.41633
1.22833	40.185	-3.43548
1.23000	40.195	-3.45405
1.23167	40.204	-3.47096
1.23333	40.214	-3.48503
1.23500	40.223	-3.49598
1.23667	40.234	-3.50372
1.23833	40.244	-3.50832
1.24000	40.254	-3.51061
1.24167	40.264	-3.51155
1.24333	40.274	-3.51336
1.24500	40.285	-3.51551
1.24667	40.295	-3.51775
1.24833	40.307	-3.51961
1.25000	40.319	-3.52087
1.25167	40.331	-3.51940
1.25333	40.341	-3.51566
1.25500	40.352	-3.50983
1.25667	40.364	-3.50127
1.25833	40.376	-3.48979
1.26000	40.389	-3.47548
1.26167	40.401	-3.45847
1.26333	40.414	-3.43971
1.26500	40.427	-3.41927
1.26667	40.442	-3.39709
1.26833	40.455	-3.37419
1.27000	40.470	-3.35013
1.27167	40.485	-3.32517
1.27333	40.500	-3.29950
1.27500	40.515	-3.27409
1.27667	40.531	-3.24840
1.27833	40.547	-3.22354
1.28000	40.563	-3.19987
1.28167	40.580	-3.17762
1.28333	40.596	-3.15757
1.28500	40.614	-3.13947
1.28667	40.630	-3.12356
1.28833	40.648	-3.10978
1.29000	40.665	-3.09841
1.29167	40.683	-3.08860
1.29333	40.701	-3.08061
1.29500	40.719	-3.07404
1.29667	40.736	-3.06870
1.29833	40.753	-3.06430
1.30000	40.770	-3.06078
1.30167	40.788	-3.05832
1.30333	40.806	-3.05609
1.30500	40.822	-3.05432
1.30667	40.841	-3.05293
1.30833	40.857	-3.05227
1.31000	40.876	-3.05154
1.31167	40.893	-3.05057
1.31333	40.910	-3.04968
1.31500	40.927	-3.04874
1.31667	40.944	-3.04779
1.31833	40.962	-3.04689
1.32000	40.979	-3.04492
1.32167	40.997	-3.04332
1.32333	41.014	-3.04075
1.32500	41.032	-3.03795
1.32667	41.049	-3.03437
1.32833	41.066	-3.03065
1.33000	41.084	-3.02615
1.33167	41.102	-3.02122
1.33333	41.119	-3.01483
1.33500	41.136	-3.00767
1.33667	41.154	-2.99919
1.33833	41.172	-2.98956
1.34000	41.190	-2.97979
1.34167	41.209	-2.96870
1.34333	41.226	-2.95721
1.34500	41.244	-2.94461
1.34667	41.262	-2.93117
1.34833	41.281	-2.91694
1.35000	41.298	-2.90208
1.35167	41.317	-2.88623
1.35333	41.336	-2.86885
1.35500	41.355	-2.84995
1.35667	41.373	-2.83000
1.35833	41.393	-2.80889
1.36000	41.413	-2.78592
1.36167	41.432	-2.76263
1.36333	41.453	-2.73786
1.36500	41.473	-2.71226
1.36667	41.493	-2.68560
1.36833	41.513	-2.65808
1.37000	41.534	-2.62991
1.37167	41.554	-2.60077
1.37333	41.575	-2.57052
1.37500	41.596	-2.53950
1.37667	41.617	-2.50656
1.37833	41.640	-2.47080
1.38000	41.661	-2.43354
1.38167	41.684	-2.39418
1.38333	41.706	-2.35309
1.38500	41.729	-2.30994
1.38667	41.753	-2.26484
1.38833	41.776	-2.21866
1.39000	41.800	-2.17178
1.39167	41.825	-2.12332
1.39333	41.849	-2.07471
1.39500	41.874	-2.02549
1.39667	41.899	-1.97587
1.39833	41.925	-1.92625
1.40000	41.951	-1.87705
1.40167	41.977	-1.82892
1.40333	42.004	-1.78237
1.40500	42.029	-1.73749
1.40667	42.057	-1.69551
1.40833	42.083	-1.65639
1.41000	42.110	-1.61941
1.41167	42.137	-1.58550
1.41333	42.164	-1.55440
1.41500	42.192	-1.52565
1.41667	42.220	-1.49976
1.41833	42.246	-1.47539
1.42000	42.274	-1.45314
1.42167	42.300	-1.43222
1.42333	42.326	-1.41253
1.42500	42.354	-1.39393
1.42667	42.380	-1.37638
1.42833	42.407	-1.36015
1.43000	42.433	-1.34453
1.43167	42.459	-1.32984
1.43333	42.486	-1.31497
1.43500	42.511	-1.30075
1.43667	42.537	-1.28668
1.43833	42.564	-1.27374
1.44000	42.589	-1.26167
1.44167	42.614	-1.25009
1.44333	42.640	-1.23839
1.44500	42.666	-1.22714
1.44667	42.691	-1.21622
1.44833	42.717	-1.20587
1.45000	42.741	-1.19586
1.45167	42.765	-1.18499
1.45333	42.791	-1.17464
1.45500	42.815	-1.16362
1.45667	42.840	-1.15319
1.45833	42.865	-1.14362
1.46000	42.889	-1.13450
1.46167	42.913	-1.12476
1.46333	42.937	-1.11583
1.46500	42.962	-1.10733
1.46667	42.986	-1.09844
1.46833	43.011	-1.08970
1.47000	43.034	-1.08100
1.47167	43.057	-1.07226
1.47333	43.081	-1.06289
1.47500	43.105	-1.05442
1.47667	43.127	-1.04601
1.47833	43.152	-1.03772
1.48000	43.174	-1.02940
1.48167	43.197	-1.02136
1.48333	43.221	-1.01372
1.48500	43.243	-1.00616
1.48667	43.267	-0.998203
1.48833	43.289	-0.990777
1.49000	43.313	-0.983340
1.49167	43.336	-0.975292
1.49333	43.358	-0.968179
1.49500	43.381	-0.961439
1.49667	43.402	-0.953938
1.49833	43.425	-0.946738
1.50000	43.448	-0.939541
1.50167	43.469	-0.932020
1.50333	43.492	-0.925385
1.50500	43.514	-0.918507
1.50667	43.536	-0.911740
1.50833	43.559	-0.905588
1.51000	43.581	-0.898888
1.51167	43.602	-0.892667
1.51333	43.624	-0.886447
1.51500	43.645	-0.880058
1.51667	43.666	-0.873952
1.51833	43.688	-0.867350
1.52000	43.710	-0.860633
1.52167	43.731	-0.854748
1.52333	43.753	-0.849068
1.52500	43.773	-0.843606
1.52667	43.794	-0.837814
1.52833	43.817	-0.832163
1.53000	43.836	-0.826545
1.53167	43.858	-0.820872
1.53333	43.879	-0.814999
1.53500	43.900	-0.809823
1.53667	43.921	-0.804037
1.53833	43.942	-0.798589
1.54000	43.964	-0.792902
1.54167	43.984	-0.788274
1.54333	44.004	-0.783559
1.54500	44.025	-0.779230
1.54667	44.045	-0.774371
1.54833	44.066	-0.769322
1.55000	44.085	-0.764734
1.55167	44.106	-0.759599
1.55333	44.126	-0.755007
1.55500	44.146	-0.750391
1.55667	44.166	-0.746181
1.55833	44.187	-0.741268
1.56000	44.207	-0.737088
1.56167	44.227	-0.732800
1.56333	44.248	-0.728314
1.56500	44.268	-0.724234
1.56667	44.287	-0.719210
1.56833	44.307	-0.715093
1.57000	44.328	-0.710607
1.57167	44.347	-0.706654
1.57333	44.367	-0.703185
1.57500	44.386	-0.699615
1.57667	44.407	-0.695661
1.57833	44.426	-0.691707
1.58000	44.445	-0.687716
1.58167	44.466	-0.684059
1.58333	44.486	-0.680202
1.58500	44.505	-0.676266
1.58667	44.524	-0.672476
1.58833	44.543	-0.668222
1.59000	44.562	-0.664713
1.59167	44.583	-0.661676
1.59333	44.602	-0.659089
1.59500	44.621	-0.656098
1.59667	44.640	-0.653391
1.59833	44.659	-0.650183
1.60000	44.678	-0.646981
1.60167	44.697	-0.643890
1.60333	44.716	-0.640980
1.60500	44.736	-0.637499
1.60667	44.755	-0.633975
1.60833	44.774	-0.630350
1.61000	44.793	-0.626833
1.61167	44.812	-0.623545
1.61333	44.831	-0.620877
1.61500	44.850	-0.618971
1.61667	44.869	-0.616327
1.61833	44.888	-0.613347
1.62000	44.907	-0.611068
1.62167	44.926	-0.608709
1.62333	44.944	-0.606441
1.62500	44.964	-0.603900
1.62667	44.982	-0.600990
1.62833	45.001	-0.598144
1.63000	45.019	-0.595314
1.63167	45.038	-0.592789
1.63333	45.057	-0.589719
1.63500	45.076	-0.587428
1.63667	45.094	-0.584884
1.63833	45.113	-0.582980
1.64000	45.130	-0.581105
1.64167	45.148	-0.579107
1.64333	45.167	-0.576811
1.64500	45.187	-0.574216
1.64667	45.204	-0.571293
1.64833	45.223	-0.568975
1.65000	45.243	-0.566588
1.65167	45.260	-0.564034
1.65333	45.277	-0.562475
1.65500	45.297	-0.560080
1.65667	45.315	-0.558447
1.65833	45.333	-0.557545
1.66000	45.351	-0.556212
1.66167	45.369	-0.554544
1.66333	45.387	-0.552726
1.66500	45.405	-0.550492
1.66667	45.423	-0.548926
1.66833	45.442	-0.546692
1.67000	45.461	-0.544736
1.67167	45.479	-0.542497
1.67333	45.497	-0.539968
1.67500	45.515	-0.537910
1.67667	45.532	-0.536478
1.67833	45.551	-0.535297
1.68000	45.570	-0.533899
1.68167	45.587	-0.532449
1.68333	45.606	-0.530374
1.68500	45.624	-0.529154
1.68667	45.642	-0.527513
1.68833	45.659	-0.525240
1.69000	45.677	-0.522371
1.69167	45.696	-0.520847
1.69333	45.713	-0.518998
1.69500	45.731	-0.517687
1.69667	45.749	-0.516736
1.69833	45.767	-0.515404
1.70000	45.785	-0.514448
1.70167	45.804	-0.512928
1.70333	45.821	-0.512121
1.70500	45.839	-0.511181
1.70667	45.856	-0.509656
1.70833	45.874	-0.508146
1.71000	45.892	-0.506455
1.71167	45.909	-0.504987
1.71333	45.928	-0.503621
1.71500	45.945	-0.501991
1.71667	45.963	-0.499901
1.71833	45.981	-0.498013
1.72000	45.999	-0.496811
1.72167	46.016	-0.495410
1.72333	46.035	-0.494276
1.72500	46.052	-0.493762
1.72667	46.070	-0.492902
1.72833	46.087	-0.492422
1.73000	46.104	-0.491475
1.73167	46.123	-0.490598
1.73333	46.140	-0.489856
1.73500	46.158	-0.488819
1.73667	46.175	-0.486825
1.73833	46.193	-0.485829
1.74000	46.210	-0.484533
1.74167	46.228	-0.483448
1.74333	46.245	-0.482654
1.74500	46.262	-0.481546
1.74667	46.279	-0.480338
1.74833	46.296	-0.479160
1.75000	46.314	-0.477265
1.75167	46.331	-0.476064
1.75333	46.349	-0.475262
1.75500	46.367	-0.474003
1.75667	46.384	-0.473254
1.75833	46.401	-0.472225
1.76000	46.418	-0.471583
1.76167	46.435	-0.470603
1.76333	46.453	-0.470015
1.76500	46.470	-0.469587
1.76667	46.488	-0.468946
1.76833	46.505	-0.467929
1.77000	46.522	-0.466955
1.77167	46.540	-0.465981
1.77333	46.557	-0.464890
1.77500	46.574	-0.464370
1.77667	46.593	-0.463910
1.77833	46.609	-0.463405
1.78000	46.627	-0.462260
1.78167	46.644	-0.461220
1.78333	46.661	-0.460459
1.78500	46.679	-0.459668
1.78667	46.696	-0.459072
1.78833	46.714	-0.458238
1.79000	46.730	-0.457444
1.79167	46.748	-0.456117
1.79333	46.764	-0.455720
1.79500	46.781	-0.455113
1.79667	46.799	-0.454830
1.79833	46.816	-0.454005
1.80000	46.833	-0.453341
1.80167	46.849	-0.452480
1.80333	46.867	-0.452079
1.80500	46.885	-0.451859
1.80667	46.903	-0.451493
1.80833	46.920	-0.450987
1.81000	46.937	-0.450201
1.81167	46.954	-0.449699
1.81333	46.972	-0.448784
1.81500	46.989	-0.448308
1.81667	47.006	-0.447827
1.81833	47.023	-0.447465
1.82000	47.040	-0.447123
1.82167	47.057	-0.446533
1.82333	47.075	-0.446279
1.82500	47.091	-0.446226
1.82667	47.109	-0.445992
1.82833	47.125	-0.445271
1.83000	47.143	-0.444827
1.83167	47.159	-0.444197
1.83333	47.176	-0.443276
1.83500	47.193	-0.442431
1.83667	47.209	-0.441845
1.83833	47.228	-0.441517
1.84000	47.244	-0.440992
1.84167	47.262	-0.440868
1.84333	47.278	-0.440544
1.84500	47.297	-0.440067
1.84667	47.313	-0.439630
1.84833	47.330	-0.439196
1.85000	47.348	-0.438980
1.85167	47.365	-0.438666
1.85333	47.383	-0.438053
1.85500	47.399	-0.437330
1.85667	47.417	-0.436587
1.85833	47.433	-0.435838
1.86000	47.450	-0.435474
1.86167	47.468	-0.435158
1.86333	47.485	-0.434584
1.86500	47.502	-0.433876
1.86667	47.519	-0.433495
1.86833	47.537	-0.433225
1.87000	47.552	-0.432989
1.87167	47.569	-0.432776
1.87333	47.586	-0.432380
1.87500	47.602	-0.431819
1.87667	47.620	-0.431392
1.87833	47.637	-0.431028
1.88000	47.656	-0.430807
1.88167	47.670	-0.430451
1.88333	47.688	-0.429948
1.88500	47.705	-0.429651
1.88667	47.722	-0.429385
1.88833	47.738	-0.429112
1.89000	47.755	-0.428987
1.89167	47.772	-0.428918
1.89333	47.789	-0.428708
1.89500	47.806	-0.428469
1.89667	47.823	-0.428035
1.89833	47.841	-0.427687
1.90000	47.857	-0.427254
1.90167	47.874	-0.426875
1.90333	47.891	-0.426641
1.90500	47.908	-0.426351
1.90667	47.924	-0.426003
1.90833	47.940	-0.425729
1.91000	47.958	-0.425458
1.91167	47.975	-0.425184
1.91333	47.991	-0.424878
1.91500	48.008	-0.424506
1.91667	48.026	-0.424111
1.91833	48.042	-0.423682
1.92000	48.060	-0.423381
1.92167	48.076	-0.423288
1.92333	48.093	-0.423104
1.92500	48.110	-0.423014
1.92667	48.126	-0.422895
1.92833	48.143	-0.422773
1.93000	48.161	-0.422616
1.93167	48.177	-0.422361
1.93333	48.195	-0.422097
1.93500	48.210	-0.421861
1.93667	48.228	-0.421667
1.93833	48.244	-0.421518
1.94000	48.262	-0.421441
1.94167	48.278	-0.421337
1.94333	48.295	-0.421245
1.94500	48.312	-0.421182
1.94667	48.329	-0.421160
1.94833	48.346	-0.421144
1.95000	48.363	-0.421119
1.95167	48.380	-0.421091
1.95333	48.397	-0.421057
1.95500	48.414	-0.421014
1.95667	48.431	-0.420985
1.95833	48.448	-0.420893
1.96000	48.465	-0.420717
1.96167	48.482	-0.420433
1.96333	48.498	-0.420097
1.96500	48.515	-0.419777
1.96667	48.531	-0.419396
1.96833	48.549	-0.419069
1.97000	48.565	-0.418818
1.97167	48.582	-0.418551
1.97333	48.599	-0.418315
1.97500	48.616	-0.418113
1.97667	48.634	-0.418008
1.97833	48.649	-0.417900
1.98000	48.666	-0.417824
1.98167	48.683	-0.417778
1.98333	48.700	-0.417742
1.98500	48.717	-0.417724
1.98667	48.734	-0.417713
1.98833	48.751	-0.417706
1.99000	48.767	-0.417684
1.99167	48.783	-0.417649
1.99333	48.801	-0.417608
1.99500	48.817	-0.417563
1.99667	48.835	-0.417507
1.99833	48.851	-0.417435
2.00000	48.868	-0.417301
2.00167	48.885	-0.417095
2.00333	48.901	-0.416904
2.00500	48.917	-0.416749
2.00667	48.935	-0.416526
2.00833	48.953	-0.416257
2.01000	48.968	-0.415992
2.01167	48.985	-0.415736
2.01333	49.002	-0.415409
2.01500	49.018	-0.415172
2.01667	49.036	-0.414949
2.01833	49.052	-0.414725
2.02000	49.068	-0.414473
2.02167	49.086	-0.414220
2.02333	49.103	-0.414124
2.02500	49.120	-0.414065
2.02667	49.136	-0.414052
2.02833	49.154	-0.414023
2.03000	49.170	-0.413968
2.03167	49.186	-0.413893
2.03333	49.204	-0.413824
2.03500	49.220	-0.413742
2.03667	49.236	-0.413586
2.03833	49.254	-0.413364
2.04000	49.271	-0.413106
2.04167	49.287	-0.412928
2.04333	49.304	-0.412837
2.04500	49.321	-0.412775
2.04667	49.337	-0.412697
2.04833	49.354	-0.412613
2.05000	49.371	-0.412513
2.05167	49.387	-0.412410
2.05333	49.404	-0.412343
2.05500	49.421	-0.412286
2.05667	49.438	-0.412207
2.05833	49.454	-0.412160
2.06000	49.471	-0.412143
2.06167	49.488	-0.412130
2.06333	49.505	-0.412048
2.06500	49.521	-0.411973
2.06667	49.539	-0.411964
2.06833	49.556	-0.411943
2.07000	49.572	-0.411875
2.07167	49.589	-0.411774
2.07333	49.605	-0.411652
2.07500	49.623	-0.411525
2.07667	49.640	-0.411378
2.07833	49.657	-0.411245
2.08000	49.674	-0.411103
2.08167	49.690	-0.410986
2.08333	49.706	-0.410910
2.08500	49.723	-0.410863
2.08667	49.740	-0.410826
2.08833	49.757	-0.410798
2.09000	49.773	-0.410782
2.09167	49.790	-0.410700
2.09333	49.807	-0.410685
2.09500	49.823	-0.410661
2.09667	49.840	-0.410620
2.09833	49.858	-0.410556
2.10000	49.874	-0.410441
2.10167	49.891	-0.410318
2.10333	49.907	-0.410202
2.10500	49.924	-0.410103
2.10667	49.941	-0.410012
2.10833	49.957	-0.409916
2.11000	49.973	-0.409803
2.11167	49.991	-0.409701
2.11333	50.007	-0.409594
2.11500	50.024	-0.409485
2.11667	50.041	-0.409403
2.11833	50.058	-0.409321
2.12000	50.075	-0.409268
2.12167	50.091	-0.409249
2.12333	50.108	-0.409210
2.12500	50.124	-0.409193
2.12667	50.141	-0.409161
2.12833	50.158	-0.409099
2.13000	50.175	-0.409070
2.13167	50.192	-0.408973
2.13333	50.208	-0.408832
2.13500	50.224	-0.408634
2.13667	50.242	-0.408461
2.13833	50.258	-0.408354
2.14000	50.275	-0.408296
2.14167	50.291	-0.408245
2.14333	50.309	-0.408217
2.14500	50.325	-0.408159
2.14667	50.342	-0.408135
2.14833	50.358	-0.408120
2.15000	50.376	-0.408068
2.15167	50.393	-0.408050
2.15333	50.410	-0.408030
2.15500	50.426	-0.407985
2.15667	50.443	-0.407936
2.15833	50.459	-0.407869
2.16000	50.476	-0.407783
2.16167	50.493	-0.407703
2.16333	50.509	-0.407646
2.16500	50.525	-0.407606
2.16667	50.542	-0.407540
2.16833	50.560	-0.407520
2.17000	50.577	-0.407500
2.17167	50.593	-0.407470
2.17333	50.610	-0.407448
2.17500	50.626	-0.407426
2.17667	50.643	-0.407402
2.17833	50.660	-0.407370
2.18000	50.676	-0.407341
2.18167	50.693	-0.407292
2.18333	50.710	-0.407222
2.18500	50.726	-0.407160
2.18667	50.743	-0.407111
2.18833	50.760	-0.407024
2.19000	50.777	-0.406927
2.19167	50.794	-0.406830
2.19333	50.810	-0.406752
2.19500	50.828	-0.406671
2.19667	50.843	-0.406630
2.19833	50.860	-0.406603
2.20000	50.876	-0.406579
2.20167	50.894	-0.406554
2.20333	50.911	-0.406530
2.20500	50.927	-0.406493
2.20667	50.943	-0.406468
2.20833	50.959	-0.406442
2.21000	50.977	-0.406417
2.21167	50.994	-0.406391
2.21333	51.011	-0.406365
2.21500	51.027	-0.406338
2.21667	51.043	-0.406310
2.21833	51.059	-0.406283
2.22000	51.077	-0.406254
2.22167	51.095	-0.406225
2.22333	51.112	-0.406196
2.22500	51.128	-0.406167
2.22667	51.144	-0.406131
2.22833	51.162	-0.406096
2.23000	51.177	-0.406065
2.23167	51.193	-0.406033
2.23333	51.210	-0.406004
2.23500	51.227	-0.405973
2.23667	51.243	-0.405917
2.23833	51.260	-0.405885
2.24000	51.278	-0.405853
2.24167	51.294	-0.405821
2.24333	51.310	-0.405789
2.24500	51.327	-0.405759
2.24667	51.345	-0.405734
2.24833	51.362	-0.405709
2.25000	51.377	-0.405684
2.25167	51.395	-0.405661
2.25333	51.412	-0.405636
2.25500	51.428	-0.405607
2.25667	51.445	-0.405578
2.25833	51.462	-0.405549
2.26000	51.478	-0.405512
2.26167	51.495	-0.405479
2.26333	51.512	-0.405446
2.26500	51.528	-0.405419
2.26667	51.545	-0.405390
2.26833	51.562	-0.405364
2.27000	51.578	-0.405337
2.27167	51.596	-0.405308
2.27333	51.612	-0.405277
2.27500	51.629	-0.405237
2.27667	51.646	-0.405145
2.27833	51.662	-0.405035
2.28000	51.679	-0.404886
2.28167	51.695	-0.404742
2.28333	51.712	-0.404615
2.28500	51.729	-0.404533
2.28667	51.745	-0.404439
2.28833	51.763	-0.404384
2.29000	51.779	-0.404351
2.29167	51.796	-0.404320
2.29333	51.812	-0.404277
2.29500	51.830	-0.404238
2.29667	51.846	-0.404208
2.29833	51.863	-0.404176
2.30000	51.879	-0.404145
2.30167	51.896	-0.404114
2.30333	51.913	-0.404080
2.30500	51.930	-0.404045
2.30667	51.946	-0.404007
2.30833	51.963	-0.403961
2.31000	51.978	-0.403914
2.31167	51.997	-0.403878
2.31333	52.012	-0.403845
2.31500	52.029	-0.403803
2.31667	52.046	-0.403769
2.31833	52.062	-0.403734
2.32000	52.080	-0.403700
2.32167	52.096	-0.403665
2.32333	52.113	-0.403631
2.32500	52.129	-0.403597
2.32667	52.146	-0.403561
2.32833	52.163	-0.403522
2.33000	52.180	-0.403486
2.33167	52.196	-0.403425
2.33333	52.213	-0.403369
2.33500	52.230	-0.403268
2.33667	52.247	-0.403098
2.33833	52.263	-0.402947
2.34000	52.280	-0.402790
2.34167	52.297	-0.402623
2.34333	52.314	-0.402395
2.34500	52.330	-0.402256
2.34667	52.346	-0.402109
2.34833	52.364	-0.402003
2.35000	52.380	-0.401933
2.35167	52.397	-0.401897
2.35333	52.414	-0.401862
2.35500	52.429	-0.401826
2.35667	52.447	-0.401783
2.35833	52.464	-0.401689
2.36000	52.480	-0.401534
2.36167	52.497	-0.401393
2.36333	52.514	-0.401280
2.36500	52.530	-0.401144
2.36667	52.548	-0.401029
2.36833	52.563	-0.400946
2.37000	52.581	-0.400852
2.37167	52.598	-0.400757
2.37333	52.614	-0.400702
2.37500	52.631	-0.400650
2.37667	52.647	-0.400539
2.37833	52.664	-0.400409
2.38000	52.681	-0.400295
2.38167	52.698	-0.400238
2.38333	52.714	-0.400152
2.38500	52.731	-0.400076
2.38667	52.748	-0.399956
2.38833	52.765	-0.399794
2.39000	52.782	-0.399605
2.39167	52.797	-0.399475
2.39333	52.814	-0.399403
2.39500	52.830	-0.399346
2.39667	52.848	-0.399291
2.39833	52.864	-0.399232
2.40000	52.881	-0.399120
2.40167	52.898	-0.399030
2.40333	52.915	-0.398919
2.40500	52.932	-0.398769
2.40667	52.947	-0.398552
2.40833	52.964	-0.398322
2.41000	52.982	-0.398209
2.41167	52.997	-0.398152
2.41333	53.015	-0.398115
2.41500	53.031	-0.398080
2.41667	53.047	-0.398040
2.41833	53.065	-0.397966
2.42000	53.082	-0.397862
2.42167	53.098	-0.397686
2.42333	53.114	-0.397438
2.42500	53.131	-0.397179
2.42667	53.148	-0.396933
2.42833	53.165	-0.396663
2.43000	53.181	-0.396409
2.43167	53.198	-0.396241
2.43333	53.215	-0.396028
2.43500	53.231	-0.395879
2.43667	53.248	-0.395787
2.43833	53.265	-0.395691
2.44000	53.281	-0.395590
2.44167	53.298	-0.395471
2.44333	53.315	-0.395313
2.44500	53.331	-0.395167
2.44667	53.348	-0.395009
2.44833	53.365	-0.394823
2.45000	53.382	-0.394623
2.45167	53.400	-0.394371
2.45333	53.416	-0.394127
2.45500	53.433	-0.393960
2.45667	53.450	-0.393758
2.45833	53.466	-0.393569
2.46000	53.482	-0.393385
2.46167	53.499	-0.393187
2.46333	53.515	-0.393033
2.46500	53.533	-0.392918
2.46667	53.549	-0.392786
2.46833	53.566	-0.392626
2.47000	53.582	-0.392496
2.47167	53.599	-0.392405
2.47333	53.615	-0.392295
2.47500	53.633	-0.392085
2.47667	53.650	-0.391734
2.47833	53.666	-0.391446
2.48000	53.684	-0.391115
2.48167	53.699	-0.390759
2.48333	53.716	-0.390423
2.48500	53.733	-0.390063
2.48667	53.749	-0.389701
2.48833	53.766	-0.389414
2.49000	53.783	-0.389267
2.49167	53.800	-0.389030
2.49333	53.816	-0.388813
2.49500	53.833	-0.388582
2.49667	53.850	-0.388386
2.49833	53.866	-0.388239
2.50000	53.882	-0.388071
2.50167	53.900	-0.387928
2.50333	53.916	-0.387783
2.50500	53.933	-0.387674
2.50667	53.950	-0.387604
2.50833	53.966	-0.387535
2.51000	53.983	-0.387420
2.51167	53.999	-0.387356
2.51333	54.016	-0.387317
2.51500	54.033	-0.387279
2.51667	54.050	-0.387249
2.51833	54.067	-0.387180
2.52000	54.084	-0.387070
2.52167	54.101	-0.386915
2.52333	54.117	-0.386708
2.52500	54.134	-0.386485
2.52667	54.150	-0.386121
2.52833	54.167	-0.385622
2.53000	54.184	-0.385226
2.53167	54.200	-0.384941
2.53333	54.217	-0.384706
2.53500	54.233	-0.384372
2.53667	54.250	-0.383907
2.53833	54.267	-0.383505
2.54000	54.283	-0.383228
2.54167	54.300	-0.383038
2.54333	54.317	-0.382863
2.54500	54.333	-0.382736
2.54667	54.350	-0.382661
2.54833	54.367	-0.382623
2.55000	54.384	-0.382543
2.55167	54.400	-0.382468
2.55333	54.416	-0.382433
2.55500	54.434	-0.382333
2.55667	54.451	-0.382138
2.55833	54.467	-0.381935
2.56000	54.484	-0.381763
2.56167	54.500	-0.381562
2.56333	54.517	-0.381362
2.56500	54.534	-0.381182
2.56667	54.551	-0.381038
2.56833	54.567	-0.380896
2.57000	54.584	-0.380758
2.57167	54.601	-0.380634
2.57333	54.617	-0.380483
2.57500	54.633	-0.380330
2.57667	54.650	-0.380181
2.57833	54.668	-0.380050
2.58000	54.684	-0.379919
2.58167	54.701	-0.379819
2.58333	54.718	-0.379680
2.58500	54.734	-0.379541
2.58667	54.751	-0.379404
2.58833	54.768	-0.379197
2.59000	54.784	-0.378952
2.59167	54.801	-0.378702
2.59333	54.818	-0.378528
2.59500	54.834	-0.378375
2.59667	54.850	-0.378207
2.59833	54.867	-0.378049
2.60000	54.884	-0.377956
2.60167	54.901	-0.377845
2.60333	54.918	-0.377724
2.60500	54.934	-0.377625
2.60667	54.951	-0.377461
2.60833	54.967	-0.377336
2.61000	54.985	-0.377152
2.61167	55.002	-0.377044
2.61333	55.017	-0.376978
2.61500	55.034	-0.376914
2.61667	55.051	-0.376773
2.61833	55.067	-0.376642
2.62000	55.085	-0.376494
2.62167	55.101	-0.376322
2.62333	55.118	-0.376206
2.62500	55.135	-0.376144
2.62667	55.152	-0.376079
2.62833	55.169	-0.375995
2.63000	55.185	-0.375918
2.63167	55.203	-0.375854
2.63333	55.218	-0.375761
2.63500	55.235	-0.375601
2.63667	55.251	-0.375388
2.63833	55.269	-0.375098
2.64000	55.285	-0.374702
2.64167	55.301	-0.374397
2.64333	55.318	-0.374183
2.64500	55.335	-0.374023
2.64667	55.352	-0.373877
2.64833	55.368	-0.373797
2.65000	55.385	-0.373759
2.65167	55.401	-0.373710
2.65333	55.419	-0.373615
2.65500	55.434	-0.373459
2.65667	55.451	-0.373198
2.65833	55.469	-0.372778
2.66000	55.485	-0.372310
2.66167	55.502	-0.371813
2.66333	55.518	-0.371458
2.66500	55.534	-0.371219
2.66667	55.552	-0.371082
2.66833	55.568	-0.371004
2.67000	55.584	-0.370980
2.67167	55.602	-0.370925
2.67333	55.618	-0.370853
2.67500	55.635	-0.370782
2.67667	55.652	-0.370765
2.67833	55.668	-0.370739
2.68000	55.685	-0.370683
2.68167	55.702	-0.370581
2.68333	55.718	-0.370452
2.68500	55.736	-0.370319
2.68667	55.752	-0.370164
2.68833	55.769	-0.369950
2.69000	55.786	-0.369757
2.69167	55.803	-0.369565
2.69333	55.819	-0.369360
2.69500	55.836	-0.369170
2.69667	55.852	-0.369016
2.69833	55.870	-0.368863
2.70000	55.886	-0.368746
2.70167	55.901	-0.368677
2.70333	55.919	-0.368639
2.70500	55.936	-0.368621
2.70667	55.952	-0.368537
2.70833	55.969	-0.368457
2.71000	55.987	-0.368438
2.71167	56.003	-0.368392
2.71333	56.019	-0.368346
2.71500	56.036	-0.368238
2.71667	56.052	-0.368015
2.71833	56.070	-0.367684
2.72000	56.086	-0.367405
2.72167	56.103	-0.367196
2.72333	56.119	-0.367016
2.72500	56.136	-0.366944
2.72667	56.152	-0.366891
2.72833	56.169	-0.366862
2.73000	56.186	-0.366842
2.73167	56.202	-0.366822
2.73333	56.219	-0.366791
2.73500	56.236	-0.366724
2.73667	56.253	-0.366536
2.73833	56.269	-0.366365
2.74000	56.286	-0.366242
2.74167	56.303	-0.366085
2.74333	56.320	-0.365983
2.74500	56.336	-0.365904
2.74667	56.352	-0.365844
2.74833	56.369	-0.365803
2.75000	56.386	-0.365773
2.75167	56.402	-0.365753
2.75333	56.420	-0.365714
2.75500	56.436	-0.365632
2.75667	56.453	-0.365545
2.75833	56.469	-0.365485
2.76000	56.486	-0.365416
2.76167	56.502	-0.365313
2.76333	56.519	-0.365174
2.76500	56.536	-0.365003
2.76667	56.552	-0.364821
2.76833	56.569	-0.364686
2.77000	56.586	-0.364624
2.77167	56.603	-0.364557
2.77333	56.620	-0.364509
2.77500	56.637	-0.364415
2.77667	56.653	-0.364395
2.77833	56.669	-0.364376
2.78000	56.686	-0.364318
2.78167	56.703	-0.364228
2.78333	56.720	-0.364105
2.78500	56.736	-0.363969
2.78667	56.753	-0.363841
2.78833	56.769	-0.363755
2.79000	56.785	-0.363698
2.79167	56.803	-0.363667
2.79333	56.820	-0.363617
2.79500	56.836	-0.363567
2.79667	56.853	-0.363540
2.79833	56.870	-0.363480
2.80000	56.886	-0.363439
2.80167	56.903	-0.363419
2.80333	56.920	-0.363399
2.80500	56.936	-0.363378
2.80667	56.954	-0.363356
2.80833	56.970	-0.363319
2.81000	56.986	-0.363272
2.81167	57.004	-0.363220
2.81333	57.020	-0.363175
2.81500	57.037	-0.363141
2.81667	57.053	-0.363084
2.81833	57.070	-0.363039
2.82000	57.087	-0.363003
2.82167	57.103	-0.362963
2.82333	57.120	-0.362937
2.82500	57.137	-0.362910
2.82667	57.153	-0.362887
2.82833	57.170	-0.362849
2.83000	57.186	-0.362806
2.83167	57.204	-0.362784
2.83333	57.221	-0.362759
2.83500	57.237	-0.362724
2.83667	57.254	-0.362668
2.83833	57.270	-0.362574
2.84000	57.287	-0.362452
2.84167	57.303	-0.362281
2.84333	57.321	-0.362072
2.84500	57.337	-0.361912
2.84667	57.354	-0.361782
2.84833	57.370	-0.361689
2.85000	57.387	-0.361637
2.85167	57.403	-0.361610
2.85333	57.421	-0.361557
2.85500	57.436	-0.361530
2.85667	57.453	-0.361499
2.85833	57.470	-0.361474
2.86000	57.486	-0.361448
2.86167	57.504	-0.361421
2.86333	57.520	-0.361396
2.86500	57.537	-0.361342
2.86667	57.554	-0.361286
2.86833	57.571	-0.361201
2.87000	57.588	-0.361131
2.87167	57.604	-0.361093
2.87333	57.621	-0.361063
2.87500	57.638	-0.361024
2.87667	57.654	-0.360999
2.87833	57.669	-0.360956
2.88000	57.687	-0.360929
2.88167	57.704	-0.360906
2.88333	57.721	-0.360886
2.88500	57.737	-0.360868
2.88667	57.754	-0.360848
2.88833	57.770	-0.360827
2.89000	57.787	-0.360805
2.89167	57.804	
2.89333	57.820	
2.89500	57.837	
2.89667	57.854	
2.89833	57.870	
2.90000	57.886	
2.90167	57.904	
2.90333	57.920	
2.90500	57.937	
2.90667	57.953	
2.90833	57.970	
2.91000	57.988	
2.91167	58.004	
2.91333	58.020	
2.91500	58.038	
2.91667	58.054	
2.91833	58.070	
2.92000	58.086	
2.92167	58.103	
2.92333	58.120	
2.92500	58.137	
2.92667	58.153	
2.92833	58.170	
2.93000	58.187	
2.93167	58.203	
2.93333	58.221	
2.93500	58.237	
2.93667	58.254	
2.93833	58.270	
2.94000	58.288	
2.94167		
2.94333		
2.94500		
2.94667		
2.94833		

