Filename	5-fluoro-2-nitrophenol
Instrument name	DSC2A-00807 (172.23.165.2)
Operator	Petroc Shelley
rundate	5/3/2019
Sample name	5-fluoro-2-nitrophenol
proceduresegments	Ramp 10 °C/min to 60.00 °C
[step]
Ramp 10 °C/min to 60.00 °C
Time	Temperature	Heat Flow (Normalized)
min	°C	W/g
0.00000		
1.66667e-3		
3.33333e-3		
5.00000e-3		
6.66667e-3		
8.33333e-3	30.091	
0.0100000	30.093	
0.0116667	30.097	
0.0133333	30.099	
0.0150000	30.101	
0.0166667	30.104	
0.0183333	30.105	
0.0200000	30.108	
0.0216667	30.110	
0.0233333	30.112	
0.0250000	30.114	
0.0266667	30.117	
0.0283333	30.118	
0.0300000	30.122	
0.0316667	30.124	
0.0333333	30.126	
0.0350000	30.129	
0.0366667	30.132	
0.0383333	30.134	
0.0400000	30.137	
0.0416667	30.139	
0.0433333	30.142	
0.0450000	30.146	
0.0466667	30.149	
0.0483333	30.151	
0.0500000	30.155	
0.0516667	30.158	
0.0533333	30.162	
0.0550000	30.166	
0.0566667	30.170	
0.0583333	30.174	-0.521706
0.0600000	30.178	-0.521647
0.0616667	30.182	-0.521193
0.0633333	30.187	-0.519736
0.0650000	30.192	-0.516823
0.0666667	30.196	-0.513559
0.0683333	30.202	-0.511108
0.0700000	30.207	-0.509190
0.0716667	30.213	-0.507323
0.0733333	30.219	-0.505624
0.0750000	30.225	-0.503836
0.0766667	30.232	-0.502146
0.0783333	30.239	-0.500581
0.0800000	30.245	-0.498981
0.0816667	30.251	-0.497478
0.0833333	30.259	-0.495997
0.0850000	30.267	-0.494320
0.0866667	30.274	-0.492772
0.0883333	30.283	-0.491279
0.0900000	30.291	-0.489692
0.0916667	30.299	-0.488069
0.0933333	30.308	-0.486669
0.0950000	30.316	-0.485259
0.0966667	30.325	-0.483892
0.0983333	30.335	-0.482589
0.100000	30.343	-0.481436
0.101667	30.352	-0.480388
0.103333	30.362	-0.479124
0.105000	30.373	-0.478103
0.106667	30.383	-0.477070
0.108333	30.391	-0.475944
0.110000	30.402	-0.474822
0.111667	30.412	-0.473761
0.113333	30.424	-0.472932
0.115000	30.435	-0.472171
0.116667	30.446	-0.471564
0.118333	30.457	-0.470633
0.120000	30.469	-0.469906
0.121667	30.479	-0.469279
0.123333	30.491	-0.468784
0.125000	30.502	-0.468349
0.126667	30.514	-0.467718
0.128333	30.525	-0.467138
0.130000	30.537	-0.466945
0.131667	30.548	-0.466709
0.133333	30.560	-0.466834
0.135000	30.572	-0.466748
0.136667	30.584	-0.466690
0.138333	30.597	-0.466878
0.140000	30.608	-0.466956
0.141667	30.621	-0.467250
0.143333	30.633	-0.467778
0.145000	30.645	-0.468010
0.146667	30.659	-0.468284
0.148333	30.671	-0.468830
0.150000	30.683	-0.469782
0.151667	30.696	-0.470473
0.153333	30.708	-0.471282
0.155000	30.721	-0.472139
0.156667	30.733	-0.472984
0.158333	30.746	-0.473662
0.160000	30.758	-0.474170
0.161667	30.771	-0.474638
0.163333	30.783	-0.475200
0.165000	30.796	-0.475870
0.166667	30.808	-0.476799
0.168333	30.820	-0.477810
0.170000	30.833	-0.478835
0.171667	30.846	-0.480176
0.173333	30.859	-0.481755
0.175000	30.871	-0.483504
0.176667	30.883	-0.485147
0.178333	30.896	-0.486765
0.180000	30.910	-0.488228
0.181667	30.923	-0.489452
0.183333	30.934	-0.490587
0.185000	30.948	-0.492167
0.186667	30.960	-0.493679
0.188333	30.972	-0.495238
0.190000	30.985	-0.497079
0.191667	30.997	-0.499129
0.193333	31.011	-0.501193
0.195000	31.023	-0.503176
0.196667	31.036	-0.505029
0.198333	31.049	-0.506899
0.200000	31.061	-0.508819
0.201667	31.073	-0.510470
0.203333	31.086	-0.512401
0.205000	31.099	-0.514331
0.206667	31.112	-0.516257
0.208333	31.124	-0.518469
0.210000	31.137	-0.520932
0.211667	31.150	-0.523519
0.213333	31.162	-0.526154
0.215000	31.176	-0.529151
0.216667	31.189	-0.532206
0.218333	31.201	-0.535779
0.220000	31.213	-0.539517
0.221667	31.225	-0.543110
0.223333	31.238	-0.547121
0.225000	31.250	-0.551174
0.226667	31.261	-0.555267
0.228333	31.275	-0.559592
0.230000	31.287	-0.564080
0.231667	31.299	-0.568981
0.233333	31.312	-0.573813
0.235000	31.324	-0.578949
0.236667	31.336	-0.583979
0.238333	31.350	-0.588785
0.240000	31.362	-0.593375
0.241667	31.373	-0.597751
0.243333	31.387	-0.602021
0.245000	31.398	-0.605865
0.246667	31.411	-0.609508
0.248333	31.423	-0.612498
0.250000	31.435	-0.615704
0.251667	31.447	-0.618613
0.253333	31.460	-0.621552
0.255000	31.472	-0.624104
0.256667	31.485	-0.626691
0.258333	31.497	-0.629107
0.260000	31.509	-0.631701
0.261667	31.522	-0.634351
0.263333	31.535	-0.637179
0.265000	31.547	-0.640029
0.266667	31.560	-0.642657
0.268333	31.572	-0.645535
0.270000	31.585	-0.648371
0.271667	31.598	-0.650874
0.273333	31.611	-0.653415
0.275000	31.623	-0.655867
0.276667	31.636	-0.658202
0.278333	31.649	-0.660004
0.280000	31.662	-0.662152
0.281667	31.674	-0.664315
0.283333	31.687	-0.666400
0.285000	31.701	-0.668214
0.286667	31.714	-0.670283
0.288333	31.728	-0.672490
0.290000	31.741	-0.674491
0.291667	31.754	-0.676455
0.293333	31.767	-0.678368
0.295000	31.780	-0.680550
0.296667	31.794	-0.682660
0.298333	31.807	-0.684955
0.300000	31.820	-0.687266
0.301667	31.833	-0.689412
0.303333	31.846	-0.691724
0.305000	31.860	-0.694212
0.306667	31.873	-0.696619
0.308333	31.888	-0.699115
0.310000	31.901	-0.701392
0.311667	31.914	-0.703760
0.313333	31.927	-0.706254
0.315000	31.941	-0.708819
0.316667	31.954	-0.711618
0.318333	31.968	-0.714532
0.320000	31.981	-0.717492
0.321667	31.996	-0.720146
0.323333	32.008	-0.723026
0.325000	32.023	-0.725746
0.326667	32.035	-0.728625
0.328333	32.049	-0.731671
0.330000	32.062	-0.734925
0.331667	32.077	-0.738207
0.333333	32.089	-0.741542
0.335000	32.104	-0.745128
0.336667	32.117	-0.748883
0.338333	32.131	-0.752871
0.340000	32.145	-0.756575
0.341667	32.158	-0.760857
0.343333	32.171	-0.764933
0.345000	32.185	-0.769368
0.346667	32.198	-0.774297
0.348333	32.212	-0.779135
0.350000	32.224	-0.784281
0.351667	32.238	-0.789170
0.353333	32.249	-0.793919
0.355000	32.263	-0.798670
0.356667	32.277	-0.803458
0.358333	32.289	-0.807676
0.360000	32.304	-0.811736
0.361667	32.317	-0.815759
0.363333	32.331	-0.819962
0.365000	32.343	-0.824384
0.366667	32.356	-0.828535
0.368333	32.370	-0.832684
0.370000	32.382	-0.836718
0.371667	32.396	-0.840778
0.373333	32.409	-0.844764
0.375000	32.422	-0.849098
0.376667	32.434	-0.853127
0.378333	32.448	-0.857044
0.380000	32.462	-0.861093
0.381667	32.474	-0.865093
0.383333	32.488	-0.869017
0.385000	32.500	-0.872683
0.386667	32.513	-0.876645
0.388333	32.527	-0.880414
0.390000	32.539	-0.883892
0.391667	32.553	-0.887464
0.393333	32.566	-0.890946
0.395000	32.580	-0.894392
0.396667	32.593	-0.897939
0.398333	32.606	-0.901714
0.400000	32.620	-0.905429
0.401667	32.632	-0.909380
0.403333	32.645	-0.912969
0.405000	32.659	-0.916970
0.406667	32.673	-0.921031
0.408333	32.686	-0.925190
0.410000	32.700	-0.929373
0.411667	32.713	-0.933419
0.413333	32.725	-0.937622
0.415000	32.740	-0.941518
0.416667	32.753	-0.945615
0.418333	32.767	-0.949739
0.420000	32.779	-0.953882
0.421667	32.792	-0.957805
0.423333	32.806	-0.961942
0.425000	32.820	-0.966591
0.426667	32.832	-0.971888
0.428333	32.845	-0.977561
0.430000	32.857	-0.983254
0.431667	32.871	-0.989022
0.433333	32.884	-0.995234
0.435000	32.897	-1.00159
0.436667	32.911	-1.00819
0.438333	32.923	-1.01481
0.440000	32.936	-1.02075
0.441667	32.949	-1.02697
0.443333	32.962	-1.03314
0.445000	32.975	-1.03950
0.446667	32.988	-1.04563
0.448333	33.000	-1.05158
0.450000	33.013	-1.05746
0.451667	33.025	-1.06312
0.453333	33.038	-1.06878
0.455000	33.051	-1.07457
0.456667	33.064	-1.08074
0.458333	33.078	-1.08669
0.460000	33.089	-1.09300
0.461667	33.102	-1.09914
0.463333	33.115	-1.10559
0.465000	33.127	-1.11222
0.466667	33.140	-1.11885
0.468333	33.153	-1.12549
0.470000	33.165	-1.13186
0.471667	33.177	-1.13821
0.473333	33.191	-1.14438
0.475000	33.203	-1.15009
0.476667	33.215	-1.15593
0.478333	33.227	-1.16166
0.480000	33.240	-1.16730
0.481667	33.252	-1.17261
0.483333	33.265	-1.17848
0.485000	33.277	-1.18432
0.486667	33.289	-1.19043
0.488333	33.302	-1.19656
0.490000	33.314	-1.20302
0.491667	33.327	-1.20953
0.493333	33.338	-1.21587
0.495000	33.350	-1.22210
0.496667	33.363	-1.22818
0.498333	33.376	-1.23416
0.500000	33.389	-1.24007
0.501667	33.400	-1.24621
0.503333	33.413	-1.25254
0.505000	33.426	-1.25924
0.506667	33.438	-1.26631
0.508333	33.450	-1.27388
0.510000	33.462	-1.28228
0.511667	33.474	-1.29134
0.513333	33.487	-1.30112
0.515000	33.497	-1.31171
0.516667	33.509	-1.32353
0.518333	33.521	-1.33631
0.520000	33.533	-1.34958
0.521667	33.545	-1.36377
0.523333	33.556	-1.37828
0.525000	33.566	-1.39266
0.526667	33.577	-1.40665
0.528333	33.588	-1.42037
0.530000	33.599	-1.43420
0.531667	33.611	-1.44775
0.533333	33.620	-1.46106
0.535000	33.631	-1.47451
0.536667	33.641	-1.48806
0.538333	33.651	-1.50147
0.540000	33.662	-1.51484
0.541667	33.671	-1.52857
0.543333	33.681	-1.54206
0.545000	33.691	-1.55503
0.546667	33.700	-1.56712
0.548333	33.710	-1.57897
0.550000	33.720	-1.59103
0.551667	33.730	-1.60268
0.553333	33.740	-1.61388
0.555000	33.750	-1.62524
0.556667	33.759	-1.63623
0.558333	33.769	-1.64683
0.560000	33.778	-1.65738
0.561667	33.788	-1.66731
0.563333	33.798	-1.67726
0.565000	33.808	-1.68675
0.566667	33.818	-1.69549
0.568333	33.827	-1.70367
0.570000	33.837	-1.71150
0.571667	33.847	-1.71868
0.573333	33.856	-1.72564
0.575000	33.865	-1.73237
0.576667	33.876	-1.73942
0.578333	33.886	-1.74598
0.580000	33.896	-1.75214
0.581667	33.906	-1.75832
0.583333	33.916	-1.76495
0.585000	33.927	-1.77132
0.586667	33.937	-1.77824
0.588333	33.947	-1.78554
0.590000	33.957	-1.79372
0.591667	33.967	-1.80238
0.593333	33.977	-1.81123
0.595000	33.987	-1.82013
0.596667	33.997	-1.82854
0.598333	34.007	-1.83617
0.600000	34.018	-1.84266
0.601667	34.029	-1.84813
0.603333	34.038	-1.85273
0.605000	34.048	-1.85668
0.606667	34.059	-1.86085
0.608333	34.070	-1.86485
0.610000	34.081	-1.86918
0.611667	34.092	-1.87399
0.613333	34.102	-1.87918
0.615000	34.114	-1.88487
0.616667	34.124	-1.89021
0.618333	34.136	-1.89569
0.620000	34.147	-1.90111
0.621667	34.158	-1.90588
0.623333	34.169	-1.91052
0.625000	34.180	-1.91587
0.626667	34.191	-1.92176
0.628333	34.203	-1.92770
0.630000	34.214	-1.93383
0.631667	34.226	-1.94136
0.633333	34.236	-1.94969
0.635000	34.247	-1.95864
0.636667	34.259	-1.96811
0.638333	34.270	-1.97854
0.640000	34.281	-1.98928
0.641667	34.292	-2.00036
0.643333	34.303	-2.01168
0.645000	34.314	-2.02318
0.646667	34.324	-2.03450
0.648333	34.335	-2.04511
0.650000	34.345	-2.05556
0.651667	34.356	-2.06540
0.653333	34.367	-2.07440
0.655000	34.377	-2.08312
0.656667	34.388	-2.09148
0.658333	34.399	-2.09952
0.660000	34.408	-2.10715
0.661667	34.419	-2.11472
0.663333	34.430	-2.12246
0.665000	34.440	-2.13011
0.666667	34.452	-2.13779
0.668333	34.462	-2.14579
0.670000	34.474	-2.15400
0.671667	34.484	-2.16269
0.673333	34.494	-2.17192
0.675000	34.505	-2.18170
0.676667	34.516	-2.19229
0.678333	34.526	-2.20303
0.680000	34.537	-2.21426
0.681667	34.547	-2.22550
0.683333	34.557	-2.23648
0.685000	34.567	-2.24692
0.686667	34.578	-2.25648
0.688333	34.588	-2.26555
0.690000	34.599	-2.27395
0.691667	34.609	-2.28115
0.693333	34.619	-2.28818
0.695000	34.629	-2.29479
0.696667	34.639	-2.30127
0.698333	34.650	-2.30796
0.700000	34.661	-2.31467
0.701667	34.672	-2.32114
0.703333	34.683	-2.32730
0.705000	34.693	-2.33325
0.706667	34.704	-2.33913
0.708333	34.714	-2.34466
0.710000	34.726	-2.34990
0.711667	34.735	-2.35537
0.713333	34.747	-2.36079
0.715000	34.757	-2.36681
0.716667	34.769	-2.37331
0.718333	34.779	-2.38080
0.720000	34.791	-2.38863
0.721667	34.803	-2.39690
0.723333	34.813	-2.40562
0.725000	34.823	-2.41448
0.726667	34.835	-2.42274
0.728333	34.846	-2.43054
0.730000	34.857	-2.43772
0.731667	34.867	-2.44400
0.733333	34.880	-2.44963
0.735000	34.891	-2.45446
0.736667	34.902	-2.45896
0.738333	34.912	-2.46310
0.740000	34.923	-2.46717
0.741667	34.934	-2.47085
0.743333	34.946	-2.47454
0.745000	34.956	-2.47764
0.746667	34.969	-2.48003
0.748333	34.981	-2.48219
0.750000	34.993	-2.48393
0.751667	35.005	-2.48564
0.753333	35.017	-2.48728
0.755000	35.029	-2.48909
0.756667	35.041	-2.49126
0.758333	35.054	-2.49358
0.760000	35.065	-2.49641
0.761667	35.077	-2.49997
0.763333	35.090	-2.50388
0.765000	35.102	-2.50860
0.766667	35.115	-2.51380
0.768333	35.127	-2.51923
0.770000	35.139	-2.52522
0.771667	35.152	-2.53135
0.773333	35.164	-2.53822
0.775000	35.176	-2.54511
0.776667	35.189	-2.55210
0.778333	35.202	-2.55874
0.780000	35.214	-2.56449
0.781667	35.226	-2.56972
0.783333	35.238	-2.57494
0.785000	35.251	-2.57955
0.786667	35.263	-2.58361
0.788333	35.275	-2.58723
0.790000	35.287	-2.59118
0.791667	35.300	-2.59550
0.793333	35.314	-2.60100
0.795000	35.325	-2.60695
0.796667	35.337	-2.61356
0.798333	35.350	-2.62024
0.800000	35.363	-2.62695
0.801667	35.376	-2.63349
0.803333	35.388	-2.63931
0.805000	35.400	-2.64418
0.806667	35.413	-2.64752
0.808333	35.424	-2.64996
0.810000	35.437	-2.65153
0.811667	35.450	-2.65274
0.813333	35.462	-2.65306
0.815000	35.475	-2.65309
0.816667	35.487	-2.65298
0.818333	35.502	-2.65320
0.820000	35.516	-2.65369
0.821667	35.528	-2.65457
0.823333	35.542	-2.65587
0.825000	35.555	-2.65751
0.826667	35.569	-2.65992
0.828333	35.582	-2.66272
0.830000	35.595	-2.66634
0.831667	35.607	-2.67022
0.833333	35.622	-2.67427
0.835000	35.634	-2.67884
0.836667	35.648	-2.68338
0.838333	35.662	-2.68798
0.840000	35.675	-2.69263
0.841667	35.688	-2.69722
0.843333	35.703	-2.70202
0.845000	35.716	-2.70676
0.846667	35.729	-2.71210
0.848333	35.743	-2.71727
0.850000	35.756	-2.72263
0.851667	35.769	-2.72799
0.853333	35.783	-2.73342
0.855000	35.796	-2.73869
0.856667	35.809	-2.74367
0.858333	35.823	-2.74877
0.860000	35.836	-2.75373
0.861667	35.849	-2.75901
0.863333	35.863	-2.76455
0.865000	35.875	-2.77042
0.866667	35.888	-2.77639
0.868333	35.902	-2.78258
0.870000	35.915	-2.78845
0.871667	35.928	-2.79406
0.873333	35.942	-2.79858
0.875000	35.954	-2.80263
0.876667	35.967	-2.80598
0.878333	35.981	-2.80802
0.880000	35.994	-2.80948
0.881667	36.009	-2.81042
0.883333	36.022	-2.81026
0.885000	36.035	-2.80984
0.886667	36.049	-2.80925
0.888333	36.062	-2.80755
0.890000	36.077	-2.80550
0.891667	36.091	-2.80215
0.893333	36.104	-2.79861
0.895000	36.119	-2.79440
0.896667	36.134	-2.78964
0.898333	36.148	-2.78537
0.900000	36.164	-2.78064
0.901667	36.179	-2.77525
0.903333	36.193	-2.76998
0.905000	36.208	-2.76457
0.906667	36.225	-2.75844
0.908333	36.240	-2.75135
0.910000	36.257	-2.74354
0.911667	36.272	-2.73473
0.913333	36.288	-2.72529
0.915000	36.304	-2.71572
0.916667	36.320	-2.70602
0.918333	36.337	-2.69661
0.920000	36.354	-2.68737
0.921667	36.370	-2.67873
0.923333	36.387	-2.67036
0.925000	36.405	-2.66260
0.926667	36.422	-2.65474
0.928333	36.439	-2.64724
0.930000	36.457	-2.63983
0.931667	36.475	-2.63266
0.933333	36.492	-2.62555
0.935000	36.510	-2.61891
0.936667	36.528	-2.61305
0.938333	36.546	-2.60804
0.940000	36.565	-2.60317
0.941667	36.583	-2.59892
0.943333	36.601	-2.59546
0.945000	36.619	-2.59253
0.946667	36.638	-2.58976
0.948333	36.655	-2.58731
0.950000	36.673	-2.58477
0.951667	36.692	-2.58177
0.953333	36.710	-2.57828
0.955000	36.728	-2.57455
0.956667	36.746	-2.57107
0.958333	36.764	-2.56696
0.960000	36.782	-2.56356
0.961667	36.800	-2.56017
0.963333	36.819	-2.55746
0.965000	36.836	-2.55496
0.966667	36.855	-2.55310
0.968333	36.873	-2.55170
0.970000	36.892	-2.55027
0.971667	36.910	-2.54836
0.973333	36.929	-2.54581
0.975000	36.947	-2.54237
0.976667	36.965	-2.53848
0.978333	36.983	-2.53427
0.980000	37.001	-2.52894
0.981667	37.020	-2.52314
0.983333	37.038	-2.51647
0.985000	37.057	-2.50990
0.986667	37.076	-2.50333
0.988333	37.095	-2.49678
0.990000	37.113	-2.49061
0.991667	37.133	-2.48440
0.993333	37.151	-2.47844
0.995000	37.171	-2.47267
0.996667	37.189	-2.46717
0.998333	37.209	-2.46143
1.00000	37.227	-2.45559
1.00167	37.246	-2.44902
1.00333	37.266	-2.44194
1.00500	37.285	-2.43415
1.00667	37.304	-2.42620
1.00833	37.324	-2.41840
1.01000	37.343	-2.41054
1.01167	37.363	-2.40272
1.01333	37.383	-2.39539
1.01500	37.403	-2.38918
1.01667	37.423	-2.38375
1.01833	37.442	-2.37909
1.02000	37.462	-2.37487
1.02167	37.482	-2.37120
1.02333	37.501	-2.36802
1.02500	37.521	-2.36457
1.02667	37.540	-2.36118
1.02833	37.560	-2.35730
1.03000	37.579	-2.35242
1.03167	37.600	-2.34643
1.03333	37.619	-2.33943
1.03500	37.640	-2.33154
1.03667	37.660	-2.32256
1.03833	37.680	-2.31269
1.04000	37.700	-2.30161
1.04167	37.720	-2.28987
1.04333	37.740	-2.27708
1.04500	37.760	-2.26367
1.04667	37.782	-2.24971
1.04833	37.802	-2.23516
1.05000	37.823	-2.22013
1.05167	37.845	-2.20449
1.05333	37.866	-2.18808
1.05500	37.887	-2.17185
1.05667	37.910	-2.15574
1.05833	37.931	-2.13945
1.06000	37.954	-2.12350
1.06167	37.976	-2.10753
1.06333	38.000	-2.09215
1.06500	38.021	-2.07695
1.06667	38.044	-2.06197
1.06833	38.067	-2.04667
1.07000	38.090	-2.03100
1.07167	38.112	-2.01494
1.07333	38.136	-1.99845
1.07500	38.158	-1.98172
1.07667	38.182	-1.96470
1.07833	38.206	-1.94746
1.08000	38.229	-1.92967
1.08167	38.254	-1.91209
1.08333	38.278	-1.89470
1.08500	38.302	-1.87783
1.08667	38.326	-1.86140
1.08833	38.351	-1.84554
1.09000	38.376	-1.82986
1.09167	38.399	-1.81493
1.09333	38.424	-1.80042
1.09500	38.449	-1.78678
1.09667	38.474	-1.77374
1.09833	38.498	-1.76084
1.10000	38.523	-1.74770
1.10167	38.547	-1.73499
1.10333	38.573	-1.72235
1.10500	38.598	-1.70963
1.10667	38.622	-1.69657
1.10833	38.647	-1.68322
1.11000	38.672	-1.66958
1.11167	38.697	-1.65562
1.11333	38.722	-1.64102
1.11500	38.747	-1.62598
1.11667	38.773	-1.61032
1.11833	38.798	-1.59389
1.12000	38.823	-1.57679
1.12167	38.849	-1.55889
1.12333	38.875	-1.54053
1.12500	38.900	-1.52135
1.12667	38.926	-1.50166
1.12833	38.952	-1.48166
1.13000	38.978	-1.46156
1.13167	39.004	-1.44102
1.13333	39.031	-1.42047
1.13500	39.056	-1.40002
1.13667	39.083	-1.37992
1.13833	39.109	-1.36058
1.14000	39.136	-1.34181
1.14167	39.164	-1.32397
1.14333	39.191	-1.30677
1.14500	39.219	-1.29039
1.14667	39.246	-1.27486
1.14833	39.273	-1.26015
1.15000	39.300	-1.24593
1.15167	39.326	-1.23253
1.15333	39.353	-1.21893
1.15500	39.379	-1.20574
1.15667	39.406	-1.19336
1.15833	39.432	-1.18133
1.16000	39.460	-1.16973
1.16167	39.486	-1.15882
1.16333	39.512	-1.14784
1.16500	39.539	-1.13729
1.16667	39.566	-1.12712
1.16833	39.592	-1.11689
1.17000	39.618	-1.10689
1.17167	39.645	-1.09713
1.17333	39.671	-1.08763
1.17500	39.697	-1.07827
1.17667	39.723	-1.06893
1.17833	39.749	-1.05975
1.18000	39.776	-1.05111
1.18167	39.801	-1.04217
1.18333	39.826	-1.03370
1.18500	39.852	-1.02525
1.18667	39.878	-1.01690
1.18833	39.903	-1.00893
1.19000	39.928	-1.00118
1.19167	39.954	-0.993501
1.19333	39.979	-0.986156
1.19500	40.005	-0.978759
1.19667	40.029	-0.971236
1.19833	40.055	-0.963942
1.20000	40.080	-0.956458
1.20167	40.104	-0.949299
1.20333	40.129	-0.941910
1.20500	40.154	-0.934683
1.20667	40.180	-0.927667
1.20833	40.203	-0.920598
1.21000	40.228	-0.913822
1.21167	40.252	-0.907300
1.21333	40.277	-0.900745
1.21500	40.301	-0.894317
1.21667	40.325	-0.888014
1.21833	40.349	-0.881670
1.22000	40.374	-0.875630
1.22167	40.397	-0.869611
1.22333	40.421	-0.863508
1.22500	40.445	-0.857746
1.22667	40.469	-0.851624
1.22833	40.493	-0.845625
1.23000	40.516	-0.839784
1.23167	40.540	-0.833890
1.23333	40.564	-0.828149
1.23500	40.588	-0.822225
1.23667	40.610	-0.816556
1.23833	40.634	-0.811207
1.24000	40.657	-0.805833
1.24167	40.680	-0.800040
1.24333	40.704	-0.794754
1.24500	40.727	-0.789368
1.24667	40.749	-0.784065
1.24833	40.772	-0.778658
1.25000	40.795	-0.773125
1.25167	40.818	-0.767969
1.25333	40.841	-0.762942
1.25500	40.863	-0.757733
1.25667	40.885	-0.752487
1.25833	40.908	-0.747850
1.26000	40.931	-0.742970
1.26167	40.951	-0.738062
1.26333	40.975	-0.733181
1.26500	40.998	-0.728643
1.26667	41.021	-0.723867
1.26833	41.042	-0.719224
1.27000	41.064	-0.714863
1.27167	41.086	-0.710435
1.27333	41.108	-0.705883
1.27500	41.130	-0.701044
1.27667	41.152	-0.696764
1.27833	41.175	-0.692630
1.28000	41.197	-0.688356
1.28167	41.217	-0.684305
1.28333	41.240	-0.679988
1.28500	41.261	-0.675911
1.28667	41.283	-0.672103
1.28833	41.305	-0.668199
1.29000	41.326	-0.663977
1.29167	41.347	-0.659964
1.29333	41.369	-0.655461
1.29500	41.391	-0.651028
1.29667	41.412	-0.646827
1.29833	41.433	-0.642836
1.30000	41.454	-0.638830
1.30167	41.475	-0.634823
1.30333	41.497	-0.631465
1.30500	41.517	-0.628117
1.30667	41.539	-0.624840
1.30833	41.560	-0.621487
1.31000	41.580	-0.618339
1.31167	41.601	-0.614870
1.31333	41.623	-0.611515
1.31500	41.642	-0.607802
1.31667	41.664	-0.604318
1.31833	41.684	-0.600919
1.32000	41.705	-0.597021
1.32167	41.727	-0.593384
1.32333	41.747	-0.590041
1.32500	41.767	-0.586758
1.32667	41.788	-0.583406
1.32833	41.808	-0.580340
1.33000	41.829	-0.577093
1.33167	41.849	-0.574200
1.33333	41.869	-0.571129
1.33500	41.890	-0.567985
1.33667	41.910	-0.565080
1.33833	41.930	-0.562033
1.34000	41.951	-0.559125
1.34167	41.971	-0.556202
1.34333	41.991	-0.553380
1.34500	42.011	-0.550537
1.34667	42.031	-0.547771
1.34833	42.052	-0.544973
1.35000	42.072	-0.542383
1.35167	42.091	-0.539414
1.35333	42.111	-0.536307
1.35500	42.131	-0.533572
1.35667	42.151	-0.530885
1.35833	42.171	-0.528132
1.36000	42.190	-0.525315
1.36167	42.210	-0.522603
1.36333	42.231	-0.520028
1.36500	42.251	-0.517389
1.36667	42.269	-0.514884
1.36833	42.290	-0.512535
1.37000	42.309	-0.510059
1.37167	42.329	-0.507530
1.37333	42.349	-0.505049
1.37500	42.368	-0.502988
1.37667	42.387	-0.500746
1.37833	42.406	-0.498366
1.38000	42.426	-0.496024
1.38167	42.446	-0.493719
1.38333	42.466	-0.491482
1.38500	42.485	-0.489015
1.38667	42.504	-0.486442
1.38833	42.523	-0.484000
1.39000	42.543	-0.481929
1.39167	42.562	-0.479532
1.39333	42.582	-0.477831
1.39500	42.600	-0.476354
1.39667	42.620	-0.474519
1.39833	42.639	-0.472734
1.40000	42.657	-0.470530
1.40167	42.677	-0.468715
1.40333	42.696	-0.466529
1.40500	42.716	-0.464403
1.40667	42.734	-0.461951
1.40833	42.754	-0.459652
1.41000	42.773	-0.457585
1.41167	42.791	-0.455571
1.41333	42.811	-0.453882
1.41500	42.830	-0.451988
1.41667	42.847	-0.450069
1.41833	42.867	-0.448097
1.42000	42.885	-0.446354
1.42167	42.904	-0.444661
1.42333	42.924	-0.442707
1.42500	42.942	-0.440915
1.42667	42.961	-0.438892
1.42833	42.980	-0.437207
1.43000	42.998	-0.435660
1.43167	43.017	-0.434362
1.43333	43.036	-0.432745
1.43500	43.055	-0.431517
1.43667	43.074	-0.430036
1.43833	43.092	-0.428389
1.44000	43.111	-0.426879
1.44167	43.130	-0.425193
1.44333	43.149	-0.423537
1.44500	43.167	-0.421909
1.44667	43.186	-0.420200
1.44833	43.204	-0.418621
1.45000	43.222	-0.417165
1.45167	43.241	-0.415690
1.45333	43.259	-0.414521
1.45500	43.278	-0.413156
1.45667	43.296	-0.411966
1.45833	43.314	-0.410712
1.46000	43.332	-0.409005
1.46167	43.351	-0.407301
1.46333	43.369	-0.405783
1.46500	43.387	-0.404260
1.46667	43.406	-0.402481
1.46833	43.425	-0.401274
1.47000	43.443	-0.400102
1.47167	43.461	-0.399141
1.47333	43.479	-0.397949
1.47500	43.498	-0.396866
1.47667	43.516	-0.396094
1.47833	43.533	-0.394785
1.48000	43.553	-0.393539
1.48167	43.571	-0.391898
1.48333	43.589	-0.390514
1.48500	43.607	-0.389124
1.48667	43.626	-0.388061
1.48833	43.643	-0.386726
1.49000	43.662	-0.385685
1.49167	43.679	-0.384630
1.49333	43.698	-0.383396
1.49500	43.716	-0.382512
1.49667	43.734	-0.381401
1.49833	43.752	-0.380057
1.50000	43.770	-0.378663
1.50167	43.789	-0.377207
1.50333	43.805	-0.375906
1.50500	43.824	-0.374762
1.50667	43.841	-0.373665
1.50833	43.860	-0.372669
1.51000	43.877	-0.372083
1.51167	43.895	-0.371466
1.51333	43.913	-0.370436
1.51500	43.930	-0.369539
1.51667	43.948	-0.368469
1.51833	43.967	-0.367687
1.52000	43.985	-0.367014
1.52167	44.002	-0.366030
1.52333	44.021	-0.365106
1.52500	44.038	-0.364167
1.52667	44.056	-0.363059
1.52833	44.075	-0.362286
1.53000	44.092	-0.361408
1.53167	44.110	-0.360375
1.53333	44.127	-0.359405
1.53500	44.145	-0.358363
1.53667	44.162	-0.357372
1.53833	44.181	-0.356638
1.54000	44.197	-0.356002
1.54167	44.216	-0.355445
1.54333	44.233	-0.354429
1.54500	44.251	-0.353821
1.54667	44.269	-0.352779
1.54833	44.287	-0.352094
1.55000	44.305	-0.351157
1.55167	44.322	-0.350631
1.55333	44.340	-0.349978
1.55500	44.357	-0.348772
1.55667	44.375	-0.347690
1.55833	44.392	-0.346945
1.56000	44.410	-0.346317
1.56167	44.427	-0.345452
1.56333	44.444	-0.344744
1.56500	44.462	-0.344064
1.56667	44.481	-0.343617
1.56833	44.497	-0.342880
1.57000	44.516	-0.342297
1.57167	44.533	-0.341811
1.57333	44.551	-0.340804
1.57500	44.569	-0.339981
1.57667	44.585	-0.339476
1.57833	44.603	-0.338798
1.58000	44.620	-0.338079
1.58167	44.639	-0.337619
1.58333	44.655	-0.337141
1.58500	44.673	-0.336767
1.58667	44.691	-0.336045
1.58833	44.708	-0.335288
1.59000	44.725	-0.334865
1.59167	44.742	-0.334023
1.59333	44.760	-0.333276
1.59500	44.777	-0.332783
1.59667	44.795	-0.332219
1.59833	44.812	-0.331584
1.60000	44.829	-0.330983
1.60167	44.846	-0.330326
1.60333	44.864	-0.330031
1.60500	44.882	-0.329444
1.60667	44.900	-0.328850
1.60833	44.917	-0.328097
1.61000	44.933	-0.327558
1.61167	44.952	-0.327071
1.61333	44.969	-0.326579
1.61500	44.987	-0.326162
1.61667	45.004	-0.325508
1.61833	45.020	-0.325109
1.62000	45.038	-0.324401
1.62167	45.056	-0.323929
1.62333	45.074	-0.323291
1.62500	45.090	-0.322771
1.62667	45.108	-0.322186
1.62833	45.125	-0.321770
1.63000	45.142	-0.321373
1.63167	45.160	-0.320904
1.63333	45.178	-0.320760
1.63500	45.194	-0.320106
1.63667	45.211	-0.319738
1.63833	45.228	-0.319503
1.64000	45.245	-0.319039
1.64167	45.263	-0.318545
1.64333	45.279	-0.318238
1.64500	45.296	-0.317594
1.64667	45.314	-0.317100
1.64833	45.331	-0.316849
1.65000	45.348	-0.316480
1.65167	45.365	-0.316083
1.65333	45.383	-0.315425
1.65500	45.400	-0.314911
1.65667	45.418	-0.314936
1.65833	45.434	-0.314244
1.66000	45.452	-0.313879
1.66167	45.469	-0.313563
1.66333	45.486	-0.313447
1.66500	45.504	-0.312979
1.66667	45.520	-0.312658
1.66833	45.537	-0.312194
1.67000	45.555	-0.311973
1.67167	45.571	-0.311527
1.67333	45.589	-0.310900
1.67500	45.606	-0.310786
1.67667	45.623	-0.310271
1.67833	45.642	-0.309786
1.68000	45.657	-0.309468
1.68167	45.675	-0.309156
1.68333	45.692	-0.308763
1.68500	45.710	-0.308424
1.68667	45.726	-0.308045
1.68833	45.744	-0.307654
1.69000	45.760	-0.307379
1.69167	45.778	-0.306898
1.69333	45.795	-0.306800
1.69500	45.812	-0.306815
1.69667	45.828	-0.306726
1.69833	45.847	-0.306784
1.70000	45.863	-0.306454
1.70167	45.880	-0.306156
1.70333	45.897	-0.305957
1.70500	45.914	-0.305695
1.70667	45.931	-0.305229
1.70833	45.948	-0.304636
1.71000	45.967	-0.303924
1.71167	45.983	-0.303291
1.71333	46.000	-0.302883
1.71500	46.017	-0.302763
1.71667	46.034	-0.302736
1.71833	46.050	-0.302503
1.72000	46.069	-0.302250
1.72167	46.086	-0.302084
1.72333	46.102	-0.302014
1.72500	46.119	-0.301864
1.72667	46.136	-0.301593
1.72833	46.153	-0.301281
1.73000	46.170	-0.301023
1.73167	46.189	-0.300764
1.73333	46.204	-0.300667
1.73500	46.222	-0.300499
1.73667	46.237	-0.300315
1.73833	46.255	-0.300168
1.74000	46.272	-0.299921
1.74167	46.289	-0.299631
1.74333	46.306	-0.299327
1.74500	46.323	-0.299153
1.74667	46.339	-0.298956
1.74833	46.356	-0.298792
1.75000	46.373	-0.298567
1.75167	46.389	-0.298411
1.75333	46.406	-0.298115
1.75500	46.424	-0.297869
1.75667	46.440	-0.297682
1.75833	46.456	-0.297373
1.76000	46.474	-0.297095
1.76167	46.491	-0.296959
1.76333	46.508	-0.296898
1.76500	46.525	-0.296861
1.76667	46.541	-0.296863
1.76833	46.559	-0.296828
1.77000	46.575	-0.296769
1.77167	46.593	-0.296580
1.77333	46.610	-0.296256
1.77500	46.626	-0.296037
1.77667	46.643	-0.295800
1.77833	46.662	-0.295557
1.78000	46.678	-0.295380
1.78167	46.695	-0.295190
1.78333	46.711	-0.295004
1.78500	46.728	-0.294885
1.78667	46.744	-0.294863
1.78833	46.761	-0.294841
1.79000	46.778	-0.294769
1.79167	46.795	-0.294625
1.79333	46.812	-0.294490
1.79500	46.829	-0.294352
1.79667	46.847	-0.294163
1.79833	46.864	-0.293994
1.80000	46.880	-0.293876
1.80167	46.897	-0.293742
1.80333	46.914	-0.293608
1.80500	46.931	-0.293510
1.80667	46.949	-0.293413
1.80833	46.965	-0.293267
1.81000	46.982	-0.293090
1.81167	46.998	-0.292838
1.81333	47.015	-0.292570
1.81500	47.032	-0.292232
1.81667	47.049	-0.291923
1.81833	47.065	-0.291708
1.82000	47.083	-0.291493
1.82167	47.099	-0.291307
1.82333	47.116	-0.291219
1.82500	47.132	-0.291179
1.82667	47.149	-0.291157
1.82833	47.166	-0.291136
1.83000	47.184	-0.291130
1.83167	47.200	-0.291129
1.83333	47.217	-0.291122
1.83500	47.235	-0.291123
1.83667	47.251	-0.291132
1.83833	47.268	-0.291138
1.84000	47.285	-0.291128
1.84167	47.302	-0.291107
1.84333	47.320	-0.291085
1.84500	47.336	-0.291029
1.84667	47.353	-0.290885
1.84833	47.371	-0.290705
1.85000	47.387	-0.290412
1.85167	47.404	-0.289875
1.85333	47.421	-0.289527
1.85500	47.437	-0.289337
1.85667	47.455	-0.289239
1.85833	47.471	-0.289184
1.86000	47.488	-0.289146
1.86167	47.505	-0.289143
1.86333	47.522	-0.289149
1.86500	47.539	-0.289155
1.86667	47.556	-0.289260
1.86833	47.572	-0.289338
1.87000	47.589	-0.289331
1.87167	47.604	-0.289312
1.87333	47.621	-0.289299
1.87500	47.639	-0.289284
1.87667	47.655	-0.289277
1.87833	47.673	-0.289264
1.88000	47.689	-0.289257
1.88167	47.706	-0.289234
1.88333	47.723	-0.289199
1.88500	47.740	-0.289162
1.88667	47.756	-0.289114
1.88833	47.773	-0.289034
1.89000	47.789	-0.288956
1.89167	47.807	-0.288853
1.89333	47.823	-0.288742
1.89500	47.840	-0.288633
1.89667	47.856	-0.288536
1.89833	47.873	-0.288495
1.90000	47.890	-0.288429
1.90167	47.906	-0.288356
1.90333	47.923	-0.288278
1.90500	47.940	-0.288229
1.90667	47.957	-0.288210
1.90833	47.973	-0.288154
1.91000	47.990	-0.288110
1.91167	48.007	-0.288097
1.91333	48.024	-0.288070
1.91500	48.041	-0.288057
1.91667	48.058	-0.288054
1.91833	48.074	-0.288047
1.92000	48.090	-0.288037
1.92167	48.107	-0.288012
1.92333	48.124	-0.287962
1.92500	48.140	-0.287914
1.92667	48.157	-0.287889
1.92833	48.174	-0.287869
1.93000	48.190	-0.287851
1.93167	48.208	-0.287836
1.93333	48.225	-0.287818
1.93500	48.242	-0.287803
1.93667	48.259	-0.287791
1.93833	48.275	-0.287784
1.94000	48.292	-0.287776
1.94167	48.308	-0.287769
1.94333	48.325	-0.287752
1.94500	48.342	-0.287738
1.94667	48.358	-0.287701
1.94833	48.374	-0.287694
1.95000	48.392	-0.287674
1.95167	48.409	-0.287668
1.95333	48.426	-0.287660
1.95500	48.441	-0.287647
1.95667	48.459	-0.287624
1.95833	48.476	-0.287596
1.96000	48.491	-0.287570
1.96167	48.509	-0.287549
1.96333	48.525	-0.287534
1.96500	48.542	-0.287525
1.96667	48.558	-0.287497
1.96833	48.576	-0.287487
1.97000	48.593	-0.287484
1.97167	48.609	-0.287481
1.97333	48.626	-0.287478
1.97500	48.643	-0.287474
1.97667	48.661	-0.287465
1.97833	48.677	-0.287457
1.98000	48.693	-0.287446
1.98167	48.710	-0.287429
1.98333	48.727	-0.287407
1.98500	48.743	-0.287395
1.98667	48.760	-0.287385
1.98833	48.777	-0.287377
1.99000	48.793	-0.287367
1.99167	48.811	-0.287362
1.99333	48.827	-0.287359
1.99500	48.844	-0.287355
1.99667	48.860	-0.287351
1.99833	48.877	-0.287346
2.00000	48.895	-0.287342
2.00167	48.910	-0.287336
2.00333	48.926	-0.287331
2.00500	48.944	-0.287325
2.00667	48.961	-0.287318
2.00833	48.978	-0.287312
2.01000	48.995	-0.287307
2.01167	49.011	-0.287302
2.01333	49.028	-0.287299
2.01500	49.045	-0.287296
2.01667	49.061	-0.287293
2.01833	49.078	-0.287289
2.02000	49.095	-0.287287
2.02167	49.111	-0.287286
2.02333	49.128	-0.287285
2.02500	49.144	-0.287284
2.02667	49.160	-0.287281
2.02833	49.178	-0.287279
2.03000	49.194	-0.287275
2.03167	49.211	-0.287272
2.03333	49.227	-0.287267
2.03500	49.244	-0.287261
2.03667	49.262	-0.287255
2.03833	49.278	-0.287250
2.04000	49.294	-0.287244
2.04167	49.311	-0.287239
2.04333	49.328	-0.287237
2.04500	49.343	-0.287236
2.04667	49.361	-0.287235
2.04833	49.377	-0.287233
2.05000	49.394	-0.287231
2.05167	49.410	-0.287230
2.05333	49.427	-0.287229
2.05500	49.444	-0.287229
2.05667	49.460	-0.287227
2.05833	49.478	-0.287226
2.06000	49.495	-0.287224
2.06167	49.511	-0.287222
2.06333	49.528	-0.287222
2.06500	49.545	-0.287224
2.06667	49.561	-0.287226
2.06833	49.578	-0.287229
2.07000	49.594	-0.287232
2.07167	49.612	-0.287240
2.07333	49.629	-0.287246
2.07500	49.645	-0.287250
2.07667	49.661	-0.287254
2.07833	49.678	-0.287257
2.08000	49.696	-0.287258
2.08167	49.711	-0.287258
2.08333	49.727	-0.287254
2.08500	49.746	-0.287251
2.08667	49.762	-0.287244
2.08833	49.778	-0.287234
2.09000	49.794	-0.287229
2.09167	49.812	-0.287224
2.09333	49.829	-0.287218
2.09500	49.845	-0.287214
2.09667	49.862	-0.287212
2.09833	49.878	-0.287212
2.10000	49.894	-0.287214
2.10167	49.912	-0.287218
2.10333	49.928	-0.287227
2.10500	49.945	-0.287231
2.10667	49.961	-0.287238
2.10833	49.978	-0.287254
2.11000	49.996	-0.287263
2.11167	50.012	-0.287268
2.11333	50.029	-0.287272
2.11500	50.045	-0.287277
2.11667	50.062	-0.287286
2.11833	50.078	-0.287295
2.12000	50.094	-0.287301
2.12167	50.112	-0.287308
2.12333	50.129	-0.287312
2.12500	50.145	-0.287313
2.12667	50.162	-0.287311
2.12833	50.179	-0.287307
2.13000	50.196	-0.287297
2.13167	50.212	-0.287293
2.13333	50.228	-0.287291
2.13500	50.246	-0.287296
2.13667	50.262	-0.287309
2.13833	50.279	-0.287348
2.14000	50.296	-0.287423
2.14167	50.312	-0.287497
2.14333	50.329	-0.287545
2.14500	50.346	-0.287554
2.14667	50.363	-0.287560
2.14833	50.379	-0.287564
2.15000	50.396	-0.287566
2.15167	50.412	-0.287567
2.15333	50.428	-0.287566
2.15500	50.445	-0.287565
2.15667	50.461	-0.287564
2.15833	50.479	-0.287564
2.16000	50.495	-0.287564
2.16167	50.512	-0.287567
2.16333	50.528	-0.287569
2.16500	50.545	-0.287574
2.16667	50.562	-0.287584
2.16833	50.578	-0.287600
2.17000	50.595	-0.287619
2.17167	50.612	-0.287628
2.17333	50.628	-0.287641
2.17500	50.645	-0.287650
2.17667	50.663	-0.287656
2.17833	50.679	-0.287663
2.18000	50.695	-0.287670
2.18167	50.711	-0.287674
2.18333	50.729	-0.287683
2.18500	50.745	-0.287696
2.18667	50.762	-0.287727
2.18833	50.778	-0.287755
2.19000	50.795	-0.287786
2.19167	50.812	-0.287839
2.19333	50.829	-0.287896
2.19500	50.845	-0.287938
2.19667	50.861	-0.287959
2.19833	50.878	-0.287968
2.20000	50.894	-0.287973
2.20167	50.911	-0.287977
2.20333	50.928	-0.287979
2.20500	50.945	-0.287980
2.20667	50.961	-0.287981
2.20833	50.978	-0.287983
2.21000	50.995	-0.287989
2.21167	51.012	-0.288001
2.21333	51.028	-0.288025
2.21500	51.045	-0.288090
2.21667	51.062	-0.288211
2.21833	51.079	-0.288311
2.22000	51.095	-0.288374
2.22167	51.111	-0.288403
2.22333	51.129	-0.288412
2.22500	51.146	-0.288418
2.22667	51.161	-0.288422
2.22833	51.178	-0.288427
2.23000	51.194	-0.288432
2.23167	51.211	-0.288437
2.23333	51.227	-0.288444
2.23500	51.245	-0.288454
2.23667	51.261	-0.288467
2.23833	51.278	-0.288482
2.24000	51.294	-0.288496
2.24167	51.312	-0.288517
2.24333	51.328	-0.288530
2.24500	51.345	-0.288540
2.24667	51.361	-0.288552
2.24833	51.377	-0.288568
2.25000	51.395	-0.288580
2.25167	51.411	-0.288591
2.25333	51.427	-0.288601
2.25500	51.445	-0.288607
2.25667	51.460	-0.288613
2.25833	51.478	-0.288618
2.26000	51.494	-0.288627
2.26167	51.512	-0.288637
2.26333	51.528	-0.288647
2.26500	51.545	-0.288659
2.26667	51.561	-0.288677
2.26833	51.578	-0.288708
2.27000	51.595	-0.288746
2.27167	51.611	-0.288776
2.27333	51.629	-0.288794
2.27500	51.644	-0.288813
2.27667	51.661	-0.288843
2.27833	51.678	-0.288919
2.28000	51.695	-0.289010
2.28167	51.712	-0.289078
2.28333	51.729	-0.289130
2.28500	51.745	-0.289228
2.28667	51.761	-0.289362
2.28833	51.779	-0.289452
2.29000	51.796	-0.289496
2.29167	51.812	-0.289519
2.29333	51.830	-0.289533
2.29500	51.846	-0.289545
2.29667	51.862	-0.289556
2.29833	51.878	-0.289564
2.30000	51.894	-0.289570
2.30167	51.912	-0.289575
2.30333	51.928	-0.289584
2.30500	51.943	-0.289597
2.30667	51.960	-0.289625
2.30833	51.978	-0.289700
2.31000	51.994	-0.289811
2.31167	52.011	-0.289963
2.31333	52.029	-0.290083
2.31500	52.045	-0.290163
2.31667	52.062	-0.290205
2.31833	52.079	-0.290218
2.32000	52.095	-0.290232
2.32167	52.112	-0.290240
2.32333	52.129	-0.290248
2.32500	52.145	-0.290254
2.32667	52.162	-0.290261
2.32833	52.179	-0.290270
2.33000	52.195	-0.290282
2.33167	52.212	-0.290297
2.33333	52.228	-0.290326
2.33500	52.245	-0.290375
2.33667	52.262	-0.290430
2.33833	52.279	-0.290467
2.34000	52.295	-0.290497
2.34167	52.312	-0.290527
2.34333	52.328	-0.290543
2.34500	52.345	-0.290558
2.34667	52.363	-0.290604
2.34833	52.379	-0.290666
2.35000	52.395	-0.290727
2.35167	52.412	-0.290802
2.35333	52.429	-0.290855
2.35500	52.445	-0.290888
2.35667	52.462	-0.290921
2.35833	52.478	-0.290945
2.36000	52.495	-0.290961
2.36167	52.511	-0.290976
2.36333	52.528	-0.290991
2.36500	52.545	-0.291007
2.36667	52.561	-0.291029
2.36833	52.578	-0.291048
2.37000	52.595	-0.291065
2.37167	52.611	-0.291081
2.37333	52.627	-0.291096
2.37500	52.644	-0.291116
2.37667	52.661	-0.291149
2.37833	52.678	-0.291191
2.38000	52.694	-0.291236
2.38167	52.711	-0.291315
2.38333	52.728	-0.291376
2.38500	52.745	-0.291419
2.38667	52.762	-0.291476
2.38833	52.778	-0.291529
2.39000	52.795	-0.291566
2.39167	52.812	-0.291586
2.39333	52.828	-0.291605
2.39500	52.845	-0.291623
2.39667	52.861	-0.291652
2.39833	52.878	-0.291672
2.40000	52.894	-0.291689
2.40167	52.911	-0.291709
2.40333	52.927	-0.291732
2.40500	52.944	-0.291755
2.40667	52.961	-0.291785
2.40833	52.977	-0.291815
2.41000	52.995	-0.291843
2.41167	53.011	-0.291876
2.41333	53.029	-0.291928
2.41500	53.045	-0.291957
2.41667	53.062	-0.291984
2.41833	53.078	-0.292036
2.42000	53.095	-0.292131
2.42167	53.112	-0.292208
2.42333	53.128	-0.292266
2.42500	53.145	-0.292304
2.42667	53.161	-0.292322
2.42833	53.178	-0.292341
2.43000	53.194	-0.292359
2.43167	53.211	-0.292378
2.43333	53.228	-0.292393
2.43500	53.244	-0.292408
2.43667	53.261	-0.292425
2.43833	53.277	-0.292444
2.44000	53.294	-0.292464
2.44167	53.312	-0.292482
2.44333	53.328	-0.292501
2.44500	53.345	-0.292521
2.44667	53.361	-0.292540
2.44833	53.379	-0.292568
2.45000	53.394	-0.292619
2.45167	53.410	-0.292656
2.45333	53.427	-0.292685
2.45500	53.444	-0.292718
2.45667	53.461	-0.292738
2.45833	53.478	-0.292759
2.46000	53.494	-0.292778
2.46167	53.511	-0.292797
2.46333	53.528	-0.292818
2.46500	53.545	-0.292840
2.46667	53.561	-0.292860
2.46833	53.577	-0.292881
2.47000	53.595	-0.292905
2.47167	53.610	-0.292934
2.47333	53.627	-0.292961
2.47500	53.643	-0.292990
2.47667	53.660	-0.293018
2.47833	53.677	-0.293057
2.48000	53.694	-0.293093
2.48167	53.711	-0.293137
2.48333	53.728	-0.293195
2.48500	53.745	-0.293222
2.48667	53.762	-0.293245
2.48833	53.777	-0.293265
2.49000	53.794	-0.293287
2.49167	53.811	-0.293305
2.49333	53.828	-0.293322
2.49500	53.844	-0.293338
2.49667	53.860	-0.293355
2.49833	53.877	-0.293376
2.50000	53.895	-0.293399
2.50167	53.911	-0.293420
2.50333	53.927	-0.293441
2.50500	53.944	-0.293463
2.50667	53.961	-0.293486
2.50833	53.978	-0.293537
2.51000	53.993	-0.293593
2.51167	54.010	-0.293652
2.51333	54.026	-0.293692
2.51500	54.044	-0.293722
2.51667	54.061	-0.293758
2.51833	54.077	-0.293812
2.52000	54.093	-0.293849
2.52167	54.110	-0.293870
2.52333	54.127	-0.293892
2.52500	54.143	-0.293914
2.52667	54.161	-0.293934
2.52833	54.177	-0.293957
2.53000	54.194	-0.293980
2.53167	54.211	-0.294004
2.53333	54.227	-0.294027
2.53500	54.244	-0.294049
2.53667	54.261	-0.294091
2.53833	54.277	-0.294142
2.54000	54.295	-0.294178
2.54167	54.310	-0.294202
2.54333	54.327	-0.294226
2.54500	54.344	-0.294257
2.54667	54.361	-0.294279
2.54833	54.377	-0.294301
2.55000	54.394	-0.294324
2.55167	54.410	-0.294346
2.55333	54.426	-0.294366
2.55500	54.443	-0.294388
2.55667	54.459	-0.294407
2.55833	54.477	-0.294426
2.56000	54.493	-0.294443
2.56167	54.509	-0.294462
2.56333	54.527	-0.294482
2.56500	54.543	-0.294503
2.56667	54.560	-0.294526
2.56833	54.577	-0.294551
2.57000	54.593	-0.294578
2.57167	54.609	-0.294609
2.57333	54.627	-0.294636
2.57500	54.643	-0.294659
2.57667	54.660	-0.294679
2.57833	54.677	-0.294699
2.58000	54.694	-0.294720
2.58167	54.709	-0.294741
2.58333	54.727	-0.294763
2.58500	54.743	-0.294786
2.58667	54.759	-0.294812
2.58833	54.777	-0.294848
2.59000	54.793	-0.294905
2.59167	54.810	-0.294966
2.59333	54.826	-0.294989
2.59500	54.844	-0.295009
2.59667	54.860	-0.295027
2.59833	54.877	-0.295045
2.60000	54.893	-0.295062
2.60167	54.910	-0.295079
2.60333	54.926	-0.295096
2.60500	54.943	-0.295114
2.60667	54.960	-0.295132
2.60833	54.976	-0.295152
2.61000	54.993	-0.295174
2.61167	55.009	-0.295196
2.61333	55.026	-0.295216
2.61500	55.043	-0.295233
2.61667	55.061	-0.295249
2.61833	55.077	-0.295263
2.62000	55.094	-0.295278
2.62167	55.109	-0.295292
2.62333	55.126	-0.295307
2.62500	55.143	-0.295322
2.62667	55.159	-0.295337
2.62833	55.176	-0.295354
2.63000	55.193	-0.295372
2.63167	55.210	-0.295392
2.63333	55.227	-0.295410
2.63500	55.244	-0.295427
2.63667	55.260	-0.295445
2.63833	55.277	-0.295461
2.64000	55.294	-0.295477
2.64167	55.310	-0.295492
2.64333	55.326	-0.295509
2.64500	55.343	-0.295525
2.64667	55.359	-0.295543
2.64833	55.376	-0.295561
2.65000	55.394	-0.295582
2.65167	55.411	-0.295624
2.65333	55.426	-0.295672
2.65500	55.442	-0.295692
2.65667	55.459	-0.295711
2.65833	55.476	-0.295727
2.66000	55.492	-0.295741
2.66167	55.510	-0.295752
2.66333	55.526	-0.295763
2.66500	55.543	-0.295773
2.66667	55.559	-0.295782
2.66833	55.575	-0.295792
2.67000	55.592	-0.295802
2.67167	55.608	-0.295814
2.67333	55.626	-0.295825
2.67500	55.642	-0.295837
2.67667	55.659	-0.295850
2.67833	55.675	-0.295864
2.68000	55.692	-0.295878
2.68167	55.709	-0.295893
2.68333	55.726	-0.295908
2.68500	55.742	-0.295922
2.68667	55.759	-0.295935
2.68833	55.775	-0.295949
2.69000	55.792	-0.295963
2.69167	55.809	-0.295977
2.69333	55.825	-0.295991
2.69500	55.841	-0.296004
2.69667	55.859	-0.296020
2.69833	55.875	-0.296036
2.70000	55.892	-0.296054
2.70167	55.909	-0.296071
2.70333	55.925	-0.296086
2.70500	55.943	-0.296098
2.70667	55.959	-0.296109
2.70833	55.976	-0.296121
2.71000	55.993	-0.296132
2.71167	56.008	-0.296142
2.71333	56.026	-0.296153
2.71500	56.042	-0.296164
2.71667	56.059	-0.296175
2.71833	56.074	-0.296188
2.72000	56.092	-0.296201
2.72167	56.108	-0.296214
2.72333	56.124	-0.296227
2.72500	56.142	-0.296242
2.72667	56.158	-0.296258
2.72833	56.175	-0.296272
2.73000	56.192	-0.296286
2.73167	56.208	-0.296298
2.73333	56.225	-0.296306
2.73500	56.241	-0.296311
2.73667	56.258	-0.296317
2.73833	56.275	-0.296322
2.74000	56.291	-0.296329
2.74167	56.308	-0.296338
2.74333	56.325	-0.296351
2.74500	56.342	-0.296364
2.74667	56.359	-0.296377
2.74833	56.375	-0.296391
2.75000	56.392	-0.296405
2.75167	56.408	-0.296417
2.75333	56.425	-0.296426
2.75500	56.441	-0.296433
2.75667	56.458	-0.296441
2.75833	56.475	-0.296449
2.76000	56.490	-0.296461
2.76167	56.508	-0.296472
2.76333	56.524	-0.296482
2.76500	56.541	-0.296489
2.76667	56.557	-0.296496
2.76833	56.575	-0.296502
2.77000	56.592	-0.296509
2.77167	56.609	-0.296516
2.77333	56.625	-0.296523
2.77500	56.641	-0.296530
2.77667	56.657	-0.296537
2.77833	56.675	-0.296544
2.78000	56.691	-0.296550
2.78167	56.706	-0.296560
2.78333	56.724	-0.296571
2.78500	56.741	-0.296584
2.78667	56.758	-0.296598
2.78833	56.774	-0.296618
2.79000	56.791	-0.296632
2.79167	56.809	-0.296652
2.79333	56.825	-0.296664
2.79500	56.841	-0.296674
2.79667	56.859	-0.296680
2.79833	56.874	-0.296684
2.80000	56.891	-0.296689
2.80167	56.908	-0.296695
2.80333	56.925	-0.296700
2.80500	56.942	-0.296708
2.80667	56.958	-0.296717
2.80833	56.973	-0.296724
2.81000	56.991	-0.296729
2.81167	57.009	-0.296734
2.81333	57.024	-0.296739
2.81500	57.041	-0.296743
2.81667	57.057	-0.296748
2.81833	57.074	-0.296752
2.82000	57.091	-0.296758
2.82167	57.107	-0.296765
2.82333	57.124	-0.296773
2.82500	57.141	-0.296781
2.82667	57.156	-0.296789
2.82833	57.175	-0.296795
2.83000	57.191	-0.296802
2.83167	57.207	-0.296810
2.83333	57.224	-0.296819
2.83500	57.241	-0.296830
2.83667	57.258	-0.296841
2.83833	57.274	-0.296852
2.84000	57.291	-0.296862
2.84167	57.307	-0.296872
2.84333	57.325	-0.296881
2.84500	57.340	-0.296889
2.84667	57.357	-0.296896
2.84833	57.374	-0.296903
2.85000	57.390	-0.296911
2.85167	57.407	-0.296917
2.85333	57.423	-0.296923
2.85500	57.440	-0.296930
2.85667	57.457	-0.296937
2.85833	57.473	-0.296944
2.86000	57.490	-0.296953
2.86167	57.507	-0.296960
2.86333	57.524	-0.296968
2.86500	57.540	-0.296976
2.86667	57.557	-0.296984
2.86833	57.573	-0.296990
2.87000	57.589	-0.296995
2.87167	57.606	-0.297002
2.87333	57.623	-0.297008
2.87500	57.641	-0.297014
2.87667	57.656	-0.297020
2.87833	57.673	-0.297027
2.88000	57.690	-0.297036
2.88167	57.707	-0.297044
2.88333	57.724	-0.297049
2.88500	57.740	
2.88667	57.757	
2.88833	57.774	
2.89000	57.790	
2.89167	57.806	
2.89333	57.823	
2.89500	57.840	
2.89667	57.856	
2.89833	57.873	
2.90000	57.889	
2.90167	57.905	
2.90333	57.923	
2.90500	57.939	
2.90667	57.957	
2.90833	57.972	
2.91000	57.990	
2.91167	58.007	
2.91333	58.023	
2.91500	58.040	
2.91667	58.056	
2.91833	58.073	
2.92000	58.090	
2.92167	58.105	
2.92333	58.123	
2.92500	58.139	
2.92667	58.156	
2.92833	58.172	
2.93000	58.189	
2.93167	58.206	
2.93333	58.223	
2.93500		
2.93667		
2.93833		
2.94000		
2.94167		

